1480227042.492000 /muse/eeg ffff  365.185638 631.672424 842.229919 0.000000
1480227042.492000 /muse/acc fff  445.313202 847.657593 343.750549
1480227042.492000 /muse/acc fff  445.313202 835.938782 339.844269
1480227042.493000 /muse/acc fff  453.125702 835.938782 339.844269
1480227042.493000 /muse/acc fff  457.031952 832.032532 339.844269
1480227042.494000 /muse/eeg ffff  1207.415527 421.114960 421.114960 842.229919
1480227042.494000 /muse/eeg/quantization iiii  256 128 128 256
1480227042.495000 /muse/eeg ffff  1628.530518 210.557480 210.557480 842.229919
1480227042.495000 /muse/eeg ffff  786.300598 1052.787476 842.229919 0.000000
1480227042.496000 /muse/eeg ffff  786.300598 631.672424 631.672424 0.000000
1480227042.496000 /muse/eeg ffff  786.300598 210.557480 421.114960 421.114960
1480227042.496000 /muse/eeg ffff  1628.530518 0.000000 421.114960 1263.344849
1480227042.496000 /muse/eeg ffff  786.300598 842.229919 1052.787476 421.114960
1480227042.497000 /muse/eeg ffff  365.185638 1052.787476 1052.787476 421.114960
1480227042.497000 /muse/eeg ffff  365.185638 421.114960 842.229919 421.114960
1480227042.497000 /muse/eeg ffff  1207.415527 210.557480 631.672424 1263.344849
1480227042.498000 /muse/eeg ffff  1207.415527 210.557480 842.229919 1263.344849
1480227042.498000 /muse/eeg ffff  365.185638 1263.344849 1263.344849 421.114960
1480227042.499000 /muse/eeg ffff  365.185638 631.672424 842.229919 421.114960
1480227042.499000 /muse/eeg ffff  786.300598 421.114960 631.672424 842.229919
1480227042.499000 /muse/eeg ffff  1628.530518 421.114960 631.672424 1682.814941
1480227042.499000 /muse/eeg ffff  365.185638 1263.344849 1263.344849 419.470001
1480227042.500000 /muse/acc fff  460.938232 835.938782 335.938019
1480227042.500000 /muse/drlref ff  3300000.000000 1048387.125000
1480227042.501000 /muse/acc fff  453.125702 839.845093 339.844269
1480227042.502000 /muse/acc fff  449.219452 843.751343 335.938019
1480227042.503000 /muse/eeg ffff  786.300598 1052.787476 1052.787476 840.584961
1480227042.504000 /muse/eeg/quantization iiii  256 128 128 256
1480227042.504000 /muse/eeg ffff  786.300598 210.557480 631.672424 1261.699951
1480227042.505000 /muse/eeg ffff  1628.530518 0.000000 421.114960 1682.814941
1480227042.505000 /muse/eeg ffff  1628.530518 210.557480 842.229919 1261.699951
1480227042.506000 /muse/eeg ffff  786.300598 1052.787476 1052.787476 840.584961
1480227042.506000 /muse/eeg ffff  786.300598 421.114960 842.229919 840.584961
1480227042.507000 /muse/eeg ffff  1628.530518 210.557480 631.672424 1261.699951
1480227042.507000 /muse/eeg ffff  1628.530518 210.557480 631.672424 1682.814941
1480227042.508000 /muse/eeg ffff  365.185638 1263.344849 1263.344849 419.470001
1480227042.508000 /muse/eeg ffff  365.185638 1052.787476 842.229919 419.470001
1480227042.509000 /muse/eeg ffff  786.300598 631.672424 631.672424 419.470001
1480227042.509000 /muse/eeg ffff  1628.530518 421.114960 421.114960 1261.699951
1480227042.509000 /muse/eeg ffff  1207.415527 1052.787476 1052.787476 419.470001
1480227042.510000 /muse/eeg ffff  786.300598 1473.902344 1052.787476 0.000000
1480227042.510000 /muse/eeg ffff  786.300598 842.229919 842.229919 0.000000
1480227042.510000 /muse/eeg ffff  1628.530518 631.672424 631.672424 842.229919
1480227042.511000 /muse/acc fff  449.219452 835.938782 339.844269
1480227042.511000 /muse/acc fff  449.219452 839.845093 343.750549
1480227042.511000 /muse/acc fff  449.219452 843.751343 339.844269
1480227042.512000 /muse/acc fff  449.219452 835.938782 339.844269
1480227042.512000 /muse/drlref ff  3300000.000000 1029032.250000
1480227042.512000 /muse/eeg ffff  1207.415527 210.557480 842.229919 421.114960
1480227042.513000 /muse/eeg/quantization iiii  256 256 128 256
1480227042.513000 /muse/eeg ffff  0.000000 1052.787476 1263.344849 0.000000
1480227042.513000 /muse/eeg ffff  0.000000 631.672424 842.229919 0.000000
1480227042.514000 /muse/eeg ffff  842.229919 210.557480 631.672424 421.114960
1480227042.514000 /muse/eeg ffff  1263.344849 210.557480 631.672424 1263.344849
1480227042.514000 /muse/eeg ffff  421.114960 1052.787476 1263.344849 0.000000
1480227042.514000 /muse/eeg ffff  0.000000 1052.787476 1263.344849 0.000000
1480227042.514000 /muse/eeg ffff  0.000000 631.672424 1052.787476 0.000000
1480227042.515000 /muse/eeg ffff  842.229919 631.672424 842.229919 842.229919
1480227042.515000 /muse/eeg ffff  842.229919 631.672424 1263.344849 421.114960
1480227042.515000 /muse/eeg ffff  0.000000 1473.902344 1473.902344 0.000000
1480227042.516000 /muse/eeg ffff  0.000000 1052.787476 1263.344849 0.000000
1480227042.516000 /muse/eeg ffff  842.229919 631.672424 842.229919 842.229919
1480227042.516000 /muse/eeg ffff  842.229919 631.672424 842.229919 1263.344849
1480227042.517000 /muse/eeg ffff  0.000000 1473.902344 1263.344849 0.000000
1480227042.517000 /muse/eeg ffff  0.000000 1473.902344 1052.787476 0.000000
1480227042.517000 /muse/acc fff  449.219452 839.845093 339.844269
1480227042.517000 /muse/acc fff  449.219452 839.845093 339.844269
1480227042.517000 /muse/acc fff  449.219452 839.845093 339.844269
1480227042.517000 /muse/acc fff  453.125702 839.845093 339.844269
1480227042.518000 /muse/eeg ffff  421.114960 631.672424 842.229919 421.114960
1480227042.518000 /muse/eeg/quantization iiii  256 256 128 128
1480227042.518000 /muse/eeg ffff  1263.344849 631.672424 421.114960 1682.814941
1480227042.518000 /muse/eeg ffff  842.229919 1052.787476 842.229919 1051.142456
1480227042.518000 /muse/eeg ffff  421.114960 1473.902344 631.672424 630.027466
1480227042.519000 /muse/eeg ffff  421.114960 631.672424 421.114960 630.027466
1480227042.519000 /muse/eeg ffff  1263.344849 631.672424 210.557480 1472.257446
1480227042.519000 /muse/eeg ffff  1263.344849 631.672424 421.114960 1472.257446
1480227042.519000 /muse/eeg ffff  421.114960 1473.902344 842.229919 630.027466
1480227042.519000 /muse/eeg ffff  421.114960 1052.787476 631.672424 630.027466
1480227042.520000 /muse/eeg ffff  842.229919 631.672424 421.114960 1051.142456
1480227042.520000 /muse/eeg ffff  1263.344849 631.672424 421.114960 1682.814941
1480227042.520000 /muse/eeg ffff  421.114960 1473.902344 1052.787476 419.470001
1480227042.521000 /muse/eeg ffff  421.114960 1473.902344 1052.787476 208.912506
1480227042.521000 /muse/eeg ffff  421.114960 1052.787476 842.229919 208.912506
1480227042.522000 /muse/eeg ffff  1263.344849 1052.787476 631.672424 1261.699951
1480227042.522000 /muse/eeg ffff  1263.344849 1052.787476 1052.787476 840.584961
1480227042.523000 /muse/acc fff  453.125702 835.938782 339.844269
1480227042.523000 /muse/drlref ff  3300000.000000 1048387.125000
1480227042.523000 /muse/acc fff  453.125702 839.845093 339.844269
1480227042.524000 /muse/acc fff  453.125702 839.845093 339.844269
1480227042.524000 /muse/eeg ffff  0.000000 1473.902344 1052.787476 0.000000
1480227042.524000 /muse/eeg/quantization iiii  256 256 128 128
1480227042.525000 /muse/eeg ffff  0.000000 210.557480 421.114960 0.000000
1480227042.525000 /muse/eeg ffff  842.229919 0.000000 210.557480 631.672424
1480227042.525000 /muse/eeg ffff  1263.344849 0.000000 210.557480 1263.344849
1480227042.525000 /muse/eeg ffff  0.000000 842.229919 842.229919 210.557480
1480227042.525000 /muse/eeg ffff  0.000000 842.229919 631.672424 210.557480
1480227042.526000 /muse/eeg ffff  421.114960 421.114960 421.114960 210.557480
1480227042.526000 /muse/eeg ffff  1263.344849 421.114960 421.114960 1263.344849
1480227042.527000 /muse/eeg ffff  842.229919 842.229919 1052.787476 421.114960
1480227042.527000 /muse/eeg ffff  421.114960 1263.344849 1052.787476 210.557480
1480227042.527000 /muse/eeg ffff  421.114960 842.229919 842.229919 210.557480
1480227042.527000 /muse/eeg ffff  1263.344849 842.229919 631.672424 1052.787476
1480227042.527000 /muse/eeg ffff  1263.344849 842.229919 842.229919 1263.344849
1480227042.528000 /muse/eeg ffff  421.114960 1682.814941 1263.344849 421.114960
1480227042.528000 /muse/eeg ffff  421.114960 1261.699951 1052.787476 421.114960
1480227042.528000 /muse/eeg ffff  842.229919 840.584961 842.229919 631.672424
1480227042.529000 /muse/acc fff  449.219452 839.845093 335.938019
1480227042.529000 /muse/acc fff  449.219452 835.938782 339.844269
1480227042.529000 /muse/acc fff  449.219452 843.751343 339.844269
1480227042.530000 /muse/acc fff  449.219452 839.845093 339.844269
1480227042.530000 /muse/drlref ff  3300000.000000 1032258.062500
1480227042.530000 /muse/eeg ffff  1263.344849 419.470001 631.672424 1682.814941
1480227042.531000 /muse/eeg/quantization iiii  256 128 128 256
1480227042.531000 /muse/eeg ffff  0.000000 1051.142456 1263.344849 419.470001
1480227042.531000 /muse/eeg ffff  0.000000 1261.699951 1263.344849 419.470001
1480227042.531000 /muse/eeg ffff  0.000000 419.470001 1052.787476 419.470001
1480227042.531000 /muse/eeg ffff  842.229919 208.912506 842.229919 1261.699951
1480227042.532000 /muse/eeg ffff  842.229919 419.470001 1052.787476 1261.699951
1480227042.532000 /muse/eeg ffff  0.000000 1261.699951 1263.344849 840.584961
1480227042.532000 /muse/eeg ffff  0.000000 630.027466 842.229919 840.584961
1480227042.532000 /muse/eeg ffff  842.229919 419.470001 631.672424 1261.699951
1480227042.533000 /muse/eeg ffff  1263.344849 419.470001 631.672424 1682.814941
1480227042.533000 /muse/eeg ffff  0.000000 1472.257446 1263.344849 419.470001
1480227042.533000 /muse/eeg ffff  0.000000 1472.257446 1052.787476 419.470001
1480227042.534000 /muse/eeg ffff  421.114960 840.584961 842.229919 419.470001
1480227042.534000 /muse/eeg ffff  1263.344849 630.027466 631.672424 1261.699951
1480227042.534000 /muse/eeg ffff  842.229919 1261.699951 1263.344849 419.470001
1480227042.534000 /muse/eeg ffff  421.114960 1682.814941 1263.344849 0.000000
1480227042.535000 /muse/acc fff  449.219452 839.845093 339.844269
1480227042.535000 /muse/acc fff  449.219452 839.845093 339.844269
1480227042.535000 /muse/acc fff  449.219452 839.845093 339.844269
1480227042.536000 /muse/acc fff  449.219452 839.845093 339.844269
1480227042.536000 /muse/eeg ffff  421.114960 840.584961 842.229919 210.557480
1480227042.536000 /muse/eeg/quantization iiii  256 128 128 128
1480227042.536000 /muse/eeg ffff  1263.344849 419.470001 421.114960 1263.344849
1480227042.536000 /muse/eeg ffff  1263.344849 208.912506 631.672424 1473.902344
1480227042.536000 /muse/eeg ffff  421.114960 1261.699951 1052.787476 421.114960
1480227042.537000 /muse/eeg ffff  421.114960 840.584961 842.229919 421.114960
1480227042.537000 /muse/eeg ffff  842.229919 419.470001 631.672424 842.229919
1480227042.537000 /muse/eeg ffff  1682.814941 208.912506 421.114960 1682.814941
1480227042.537000 /muse/eeg ffff  840.584961 1051.142456 1052.787476 419.470001
1480227042.537000 /muse/eeg ffff  419.470001 1261.699951 1052.787476 208.912506
1480227042.537000 /muse/eeg ffff  419.470001 419.470001 842.229919 208.912506
1480227042.538000 /muse/eeg ffff  1261.699951 419.470001 631.672424 1261.699951
1480227042.538000 /muse/eeg ffff  1261.699951 630.027466 842.229919 1051.142456
1480227042.539000 /muse/eeg ffff  419.470001 1472.257446 1052.787476 208.912506
1480227042.539000 /muse/eeg ffff  419.470001 840.584961 842.229919 208.912506
1480227042.539000 /muse/eeg ffff  1261.699951 419.470001 631.672424 840.584961
1480227042.540000 /muse/eeg ffff  1682.814941 419.470001 631.672424 1472.257446
1480227042.540000 /muse/eeg ffff  393.150299 1163.001099 937.638794 347.090851
1480227042.540000 /muse/acc fff  449.219452 839.845093 339.844269
1480227042.541000 /muse/drlref ff  3300000.000000 1045161.312500
1480227042.541000 /muse/acc fff  449.219452 839.845093 339.844269
1480227042.541000 /muse/acc fff  449.219452 843.751343 343.750549
1480227042.541000 /muse/acc fff  453.125702 839.845093 339.844269
1480227042.541000 /muse/eeg ffff  393.150299 952.443604 516.523804 0.000000
1480227042.542000 /muse/eeg/quantization iiii  256 128 128 128
1480227042.542000 /muse/eeg ffff  814.265259 110.213684 95.408859 210.557480
1480227042.542000 /muse/eeg ffff  1656.495239 0.000000 0.000000 1263.344849
1480227042.543000 /muse/eeg ffff  1235.380249 421.114960 210.557480 631.672424
1480227042.543000 /muse/eeg ffff  814.265259 1052.787476 0.000000 210.557480
1480227042.544000 /muse/eeg ffff  814.265259 421.114960 0.000000 210.557480
1480227042.544000 /muse/eeg ffff  1656.495239 210.557480 0.000000 1052.787476
1480227042.544000 /muse/eeg ffff  1656.495239 210.557480 210.557480 1263.344849
1480227042.544000 /muse/eeg ffff  814.265259 1263.344849 631.672424 210.557480
1480227042.545000 /muse/eeg ffff  814.265259 842.229919 421.114960 210.557480
1480227042.545000 /muse/eeg ffff  1235.380249 421.114960 210.557480 631.672424
1480227042.546000 /muse/eeg ffff  1682.814941 210.557480 210.557480 1682.814941
1480227042.546000 /muse/eeg ffff  840.584961 1052.787476 842.229919 630.027466
1480227042.546000 /muse/eeg ffff  419.470001 1263.344849 842.229919 419.470001
1480227042.547000 /muse/eeg ffff  419.470001 421.114960 631.672424 419.470001
1480227042.547000 /muse/eeg ffff  1261.699951 421.114960 421.114960 1472.257446
1480227042.548000 /muse/acc fff  449.219452 835.938782 339.844269
1480227042.548000 /muse/acc fff  453.125702 839.845093 339.844269
1480227042.549000 /muse/acc fff  449.219452 839.845093 339.844269
1480227042.549000 /muse/drlref ff  3300000.000000 1032258.062500
1480227042.550000 /muse/eeg ffff  840.584961 421.114960 421.114960 1051.142456
1480227042.550000 /muse/eeg/quantization iiii  256 128 128 256
1480227042.550000 /muse/eeg ffff  0.000000 1263.344849 631.672424 208.912506
1480227042.551000 /muse/eeg ffff  0.000000 631.672424 421.114960 208.912506
1480227042.551000 /muse/eeg ffff  842.229919 210.557480 210.557480 630.027466
1480227042.551000 /muse/eeg ffff  1263.344849 0.000000 210.557480 1051.142456
1480227042.551000 /muse/eeg ffff  0.000000 1052.787476 842.229919 0.000000
1480227042.551000 /muse/eeg ffff  0.000000 1052.787476 631.672424 0.000000
1480227042.552000 /muse/eeg ffff  421.114960 421.114960 421.114960 0.000000
1480227042.552000 /muse/eeg ffff  1263.344849 421.114960 421.114960 842.229919
1480227042.552000 /muse/eeg ffff  842.229919 842.229919 842.229919 421.114960
1480227042.552000 /muse/eeg ffff  421.114960 1473.902344 842.229919 0.000000
1480227042.552000 /muse/eeg ffff  421.114960 842.229919 631.672424 0.000000
1480227042.552000 /muse/eeg ffff  1263.344849 631.672424 421.114960 842.229919
1480227042.553000 /muse/eeg ffff  1263.344849 631.672424 421.114960 1263.344849
1480227042.553000 /muse/eeg ffff  421.114960 1682.814941 1052.787476 421.114960
1480227042.553000 /muse/eeg ffff  421.114960 1261.699951 842.229919 421.114960
1480227042.553000 /muse/acc fff  449.219452 839.845093 339.844269
1480227042.553000 /muse/acc fff  449.219452 839.845093 339.844269
1480227042.554000 /muse/acc fff  449.219452 835.938782 339.844269
1480227042.554000 /muse/acc fff  453.125702 839.845093 339.844269
1480227042.555000 /muse/eeg ffff  1263.344849 630.027466 421.114960 842.229919
1480227042.555000 /muse/eeg/quantization iiii  256 128 128 256
1480227042.555000 /muse/eeg ffff  1682.814941 208.912506 210.557480 1682.814941
1480227042.555000 /muse/eeg ffff  840.584961 1051.142456 842.229919 840.584961
1480227042.555000 /muse/eeg ffff  419.470001 1261.699951 842.229919 840.584961
1480227042.556000 /muse/eeg ffff  419.470001 419.470001 631.672424 840.584961
1480227042.556000 /muse/eeg ffff  1261.699951 419.470001 421.114960 1682.814941
1480227042.556000 /muse/eeg ffff  1261.699951 419.470001 631.672424 1682.814941
1480227042.557000 /muse/eeg ffff  419.470001 1472.257446 1052.787476 840.584961
1480227042.557000 /muse/eeg ffff  419.470001 840.584961 631.672424 840.584961
1480227042.557000 /muse/eeg ffff  1261.699951 419.470001 421.114960 1261.699951
1480227042.557000 /muse/eeg ffff  1682.814941 208.912506 421.114960 1682.814941
1480227042.558000 /muse/eeg ffff  419.470001 1261.699951 1052.787476 419.470001
1480227042.558000 /muse/eeg ffff  419.470001 1261.699951 842.229919 419.470001
1480227042.558000 /muse/eeg ffff  419.470001 630.027466 631.672424 419.470001
1480227042.559000 /muse/eeg ffff  1261.699951 419.470001 421.114960 1261.699951
1480227042.559000 /muse/eeg ffff  840.584961 840.584961 842.229919 840.584961
1480227042.559000 /muse/acc fff  449.219452 843.751343 339.844269
1480227042.560000 /muse/acc fff  449.219452 839.845093 339.844269
1480227042.560000 /muse/drlref ff  3300000.000000 1048387.125000
1480227042.561000 /muse/acc fff  449.219452 839.845093 339.844269
1480227042.561000 /muse/acc fff  449.219452 839.845093 339.844269
1480227042.561000 /muse/eeg ffff  0.000000 1261.699951 1052.787476 208.912506
1480227042.561000 /muse/eeg/quantization iiii  256 256 128 128
1480227042.561000 /muse/eeg ffff  0.000000 0.000000 631.672424 0.000000
1480227042.562000 /muse/eeg ffff  842.229919 0.000000 421.114960 842.229919
1480227042.562000 /muse/eeg ffff  842.229919 0.000000 421.114960 1263.344849
1480227042.562000 /muse/eeg ffff  0.000000 842.229919 1052.787476 210.557480
1480227042.562000 /muse/eeg ffff  0.000000 842.229919 842.229919 0.000000
1480227042.562000 /muse/eeg ffff  421.114960 421.114960 842.229919 210.557480
1480227042.562000 /muse/eeg ffff  1263.344849 421.114960 631.672424 1263.344849
1480227042.562000 /muse/eeg ffff  421.114960 842.229919 1052.787476 210.557480
1480227042.562000 /muse/eeg ffff  0.000000 1263.344849 1052.787476 0.000000
1480227042.563000 /muse/eeg ffff  0.000000 421.114960 842.229919 0.000000
1480227042.563000 /muse/eeg ffff  842.229919 421.114960 631.672424 1052.787476
1480227042.563000 /muse/eeg ffff  842.229919 421.114960 842.229919 1052.787476
1480227042.564000 /muse/eeg ffff  0.000000 1263.344849 1052.787476 210.557480
1480227042.564000 /muse/eeg ffff  0.000000 842.229919 842.229919 210.557480
1480227042.564000 /muse/eeg ffff  842.229919 421.114960 631.672424 631.672424
1480227042.565000 /muse/acc fff  449.219452 839.845093 339.844269
1480227042.565000 /muse/acc fff  453.125702 843.751343 343.750549
1480227042.566000 /muse/acc fff  449.219452 843.751343 339.844269
1480227042.566000 /muse/drlref ff  3300000.000000 1029032.250000
1480227042.566000 /muse/eeg ffff  842.229919 0.000000 421.114960 1052.787476
1480227042.566000 /muse/eeg/quantization iiii  256 256 128 256
1480227042.567000 /muse/eeg ffff  0.000000 842.229919 1052.787476 0.000000
1480227042.567000 /muse/eeg ffff  0.000000 842.229919 842.229919 0.000000
1480227042.567000 /muse/eeg ffff  421.114960 421.114960 631.672424 0.000000
1480227042.568000 /muse/eeg ffff  1263.344849 421.114960 421.114960 842.229919
1480227042.568000 /muse/eeg ffff  842.229919 421.114960 842.229919 421.114960
1480227042.569000 /muse/eeg ffff  0.000000 1263.344849 1052.787476 0.000000
1480227042.569000 /muse/eeg ffff  0.000000 842.229919 842.229919 0.000000
1480227042.570000 /muse/eeg ffff  842.229919 421.114960 421.114960 842.229919
1480227042.570000 /muse/eeg ffff  842.229919 421.114960 421.114960 1263.344849
1480227042.570000 /muse/eeg ffff  0.000000 1263.344849 842.229919 421.114960
1480227042.570000 /muse/eeg ffff  0.000000 1263.344849 631.672424 421.114960
1480227042.570000 /muse/eeg ffff  421.114960 842.229919 631.672424 421.114960
1480227042.570000 /muse/eeg ffff  1263.344849 842.229919 421.114960 1263.344849
1480227042.570000 /muse/eeg ffff  421.114960 1263.344849 1052.787476 421.114960
1480227042.571000 /muse/eeg ffff  0.000000 1682.814941 1052.787476 421.114960
1480227042.571000 /muse/acc fff  449.219452 835.938782 335.938019
1480227042.571000 /muse/acc fff  453.125702 839.845093 339.844269
1480227042.571000 /muse/acc fff  453.125702 843.751343 339.844269
1480227042.572000 /muse/acc fff  449.219452 839.845093 335.938019
1480227042.572000 /muse/eeg ffff  210.557480 630.027466 631.672424 421.114960
1480227042.572000 /muse/eeg/quantization iiii  128 128 128 256
1480227042.573000 /muse/eeg ffff  1473.902344 208.912506 210.557480 1263.344849
1480227042.573000 /muse/eeg ffff  1682.814941 208.912506 421.114960 1263.344849
1480227042.574000 /muse/eeg ffff  630.027466 1261.699951 842.229919 421.114960
1480227042.574000 /muse/eeg ffff  419.470001 630.027466 421.114960 421.114960
1480227042.574000 /muse/eeg ffff  1051.142456 208.912506 210.557480 842.229919
1480227042.574000 /muse/eeg ffff  1682.814941 0.000000 210.557480 1682.814941
1480227042.575000 /muse/eeg ffff  419.470001 1052.787476 842.229919 419.470001
1480227042.575000 /muse/eeg ffff  208.912506 1052.787476 631.672424 419.470001
1480227042.575000 /muse/eeg ffff  419.470001 421.114960 421.114960 419.470001
1480227042.575000 /muse/eeg ffff  1472.257446 210.557480 421.114960 1261.699951
1480227042.576000 /muse/eeg ffff  1051.142456 421.114960 842.229919 840.584961
1480227042.576000 /muse/eeg ffff  419.470001 1263.344849 1052.787476 419.470001
1480227042.577000 /muse/eeg ffff  419.470001 631.672424 842.229919 419.470001
1480227042.577000 /muse/eeg ffff  1261.699951 421.114960 631.672424 1261.699951
1480227042.577000 /muse/eeg ffff  1682.814941 421.114960 631.672424 1682.814941
1480227042.577000 /muse/acc fff  449.219452 835.938782 343.750549
1480227042.578000 /muse/acc fff  453.125702 839.845093 339.844269
1480227042.578000 /muse/drlref ff  3300000.000000 1048387.125000
1480227042.578000 /muse/acc fff  453.125702 839.845093 343.750549
1480227042.578000 /muse/acc fff  453.125702 839.845093 339.844269
1480227042.578000 /muse/eeg ffff  419.470001 1263.344849 842.229919 419.470001
1480227042.579000 /muse/eeg/quantization iiii  256 128 128 128
1480227042.579000 /muse/eeg ffff  419.470001 842.229919 421.114960 0.000000
1480227042.579000 /muse/eeg ffff  840.584961 0.000000 0.000000 210.557480
1480227042.580000 /muse/eeg ffff  1682.814941 0.000000 0.000000 1263.344849
1480227042.580000 /muse/eeg ffff  840.584961 631.672424 631.672424 421.114960
1480227042.580000 /muse/eeg ffff  419.470001 1052.787476 631.672424 0.000000
1480227042.581000 /muse/eeg ffff  419.470001 421.114960 421.114960 0.000000
1480227042.581000 /muse/eeg ffff  1261.699951 210.557480 210.557480 1052.787476
1480227042.582000 /muse/eeg ffff  1261.699951 210.557480 421.114960 1052.787476
1480227042.583000 /muse/eeg ffff  419.470001 1263.344849 842.229919 210.557480
1480227042.583000 /muse/eeg ffff  419.470001 631.672424 421.114960 210.557480
1480227042.583000 /muse/eeg ffff  840.584961 421.114960 421.114960 842.229919
1480227042.583000 /muse/eeg ffff  1682.814941 210.557480 421.114960 1682.814941
1480227042.584000 /muse/eeg ffff  419.470001 1263.344849 1052.787476 419.470001
1480227042.584000 /muse/eeg ffff  419.470001 1263.344849 1052.787476 208.912506
1480227042.585000 /muse/eeg ffff  419.470001 631.672424 842.229919 419.470001
1480227042.585000 /muse/acc fff  453.125702 839.845093 339.844269
1480227042.585000 /muse/acc fff  449.219452 843.751343 339.844269
1480227042.585000 /muse/acc fff  449.219452 835.938782 335.938019
1480227042.585000 /muse/drlref ff  3300000.000000 1029032.250000
1480227042.586000 /muse/eeg ffff  1261.699951 421.114960 421.114960 840.584961
1480227042.586000 /muse/eeg/quantization iiii  256 128 128 256
1480227042.586000 /muse/eeg ffff  840.584961 842.229919 842.229919 419.470001
1480227042.586000 /muse/eeg ffff  419.470001 1682.814941 1052.787476 0.000000
1480227042.587000 /muse/eeg ffff  419.470001 840.584961 842.229919 0.000000
1480227042.587000 /muse/eeg ffff  840.584961 630.027466 631.672424 842.229919
1480227042.587000 /muse/eeg ffff  1261.699951 419.470001 631.672424 1263.344849
1480227042.588000 /muse/eeg ffff  419.470001 1472.257446 1263.344849 0.000000
1480227042.588000 /muse/eeg ffff  419.470001 1051.142456 1052.787476 0.000000
1480227042.588000 /muse/eeg ffff  419.470001 630.027466 842.229919 421.114960
1480227042.588000 /muse/eeg ffff  1261.699951 419.470001 631.672424 1263.344849
1480227042.589000 /muse/eeg ffff  419.470001 1051.142456 1263.344849 842.229919
1480227042.589000 /muse/eeg ffff  419.470001 1472.257446 1263.344849 421.114960
1480227042.589000 /muse/eeg ffff  419.470001 630.027466 842.229919 421.114960
1480227042.589000 /muse/eeg ffff  1261.699951 630.027466 631.672424 1263.344849
1480227042.589000 /muse/elements/alpha_relative ffff  nan nan nan nan
1480227042.589000 /muse/elements/beta_relative ffff  nan nan nan nan
1480227042.589000 /muse/elements/delta_relative ffff  nan nan nan nan
1480227042.590000 /muse/elements/gamma_relative ffff  nan nan nan nan
1480227042.590000 /muse/elements/theta_relative ffff  nan nan nan nan
1480227042.590000 /muse/elements/horseshoe ffff  4.000000 4.000000 4.000000 4.000000
1480227042.590000 /muse/elements/is_good iiii  0 0 0 0
1480227042.591000 /muse/elements/blink i  0
1480227042.591000 /muse/elements/jaw_clench i  0
1480227042.591000 /muse/elements/touching_forehead i  0
1480227042.591000 /muse/elements/experimental/concentration f  0.000000
1480227042.591000 /muse/elements/experimental/mellow f  0.000000
1480227042.592000 /muse/elements/raw_fft0 fffffffffffffffffffffffffffffffffffffffffffffffffffffffffffffffffffffffffffffffffffffffffffffffffffffffffffffffffffffffffffffffff  15.567966 18.478474 34.150471 32.461754 18.675650 30.556677 33.422516 24.487864 28.836624 25.112600 29.196995 31.381151 28.430422 25.915718 12.220288 21.498764 19.485044 23.573141 0.967778 20.566719 17.074930 17.826586 23.930262 21.788157 13.364114 14.020795 15.160650 14.230294 6.633106 0.720058 19.020975 17.731625 17.574837 13.896075 21.179073 26.108208 19.664530 18.344931 4.548267 16.628170 6.771191 2.133610 20.538898 18.025078 0.128102 11.889389 15.733303 15.091931 16.647659 6.150052 15.600972 7.313546 11.682840 17.225580 14.729347 0.052195 13.143796 35.288265 45.142094 39.938759 14.354963 11.221857 6.010561 11.441839 14.464779 8.068141 13.368620 4.643703 6.522690 16.581894 20.659740 17.601503 10.416835 5.303970 5.808770 5.616107 2.702864 10.999722 12.449431 12.862172 14.534135 25.682240 26.476978 11.493287 11.742945 11.599300 10.015729 4.352164 6.374359 9.718102 17.169277 13.196456 14.277782 18.622246 8.013749 12.155616 5.655757 5.128078 5.014369 -17.024088 -2.576847 11.363810 12.963104 7.502336 2.975296 15.447578 15.759197 10.857126 -4.906258 12.299390 -3.355246 8.411283 1.246569 10.750943 8.312663 17.574221 32.214550 29.109234 16.276581 11.979507 9.977421 8.645411 11.980703 7.665523 5.854992 10.741485 4.420588 12.507230 13.075724
1480227042.592000 /muse/elements/raw_fft1 fffffffffffffffffffffffffffffffffffffffffffffffffffffffffffffffffffffffffffffffffffffffffffffffffffffffffffffffffffffffffffffffff  25.757582 28.892515 27.738487 25.004536 21.399559 29.633585 29.177288 8.605834 16.203211 16.982517 16.343706 23.564531 20.963261 18.837315 22.721357 30.450377 35.450138 28.278795 16.171019 19.447800 17.542812 15.380106 19.636305 18.714144 21.428032 13.353532 21.554220 16.820127 3.656170 11.292285 5.262644 22.469877 26.113426 -1.657527 20.864250 12.876470 7.903964 18.748295 15.441282 15.051281 13.922182 11.145614 15.096513 11.479276 4.036451 7.784801 14.521223 9.662103 16.789387 8.727016 -0.171728 6.695480 -3.808281 2.314532 13.288780 8.726401 16.152952 35.125214 43.575367 38.126724 18.294542 16.769642 9.748757 21.965532 17.398075 14.029901 15.017943 -4.797854 8.454363 9.405846 1.179153 7.063707 15.173902 8.032936 7.043676 5.827052 7.335983 9.153984 12.519738 15.776944 5.802171 18.937813 18.829952 10.662087 8.333624 11.762358 3.865892 9.248552 11.173598 11.724119 5.061934 0.451956 13.696771 11.307339 11.183753 13.955110 9.783175 1.715399 11.937183 5.834545 7.811240 12.223506 -4.673037 14.749667 13.406717 13.970632 12.046757 12.518039 11.825564 7.007852 6.170330 2.216801 10.391187 8.569593 12.092949 22.651194 34.157955 30.214947 8.565298 0.792715 12.184833 5.174607 -11.454069 6.090152 9.295518 10.143153 6.415525 11.685531 -0.061702
1480227042.592000 /muse/elements/raw_fft2 fffffffffffffffffffffffffffffffffffffffffffffffffffffffffffffffffffffffffffffffffffffffffffffffffffffffffffffffffffffffffffffffff  -2.926007 31.223837 32.100536 33.305664 34.082077 30.487885 26.614471 15.911986 27.444658 21.865461 22.077209 27.035227 28.831791 22.192829 16.601398 26.719694 31.282154 24.697311 20.122774 22.214518 20.750237 20.517303 10.283273 20.915873 21.429928 18.034420 17.483828 17.358082 13.019933 16.050325 9.491349 16.852844 23.093504 11.772180 12.940420 16.956707 17.123304 12.249366 -11.232978 8.589866 12.899749 7.061207 9.609496 14.953678 14.194910 14.525603 17.418415 15.124557 16.730612 17.655760 15.918736 7.757084 0.115615 13.539979 18.322222 15.983264 8.098305 29.062880 38.620323 32.493992 12.546123 11.378538 11.326010 16.054255 17.240421 5.665050 8.036599 0.132863 1.685562 11.322279 12.666042 9.319477 0.811587 10.433091 6.490163 -1.515325 4.865157 7.276870 11.292997 12.234201 8.898060 14.566827 17.841049 15.429065 13.618032 7.183662 9.620306 -0.560145 2.048585 9.599427 9.931677 -11.354134 -4.302252 2.358050 -0.575563 -0.789819 7.437894 -3.706758 9.731683 1.631895 0.178889 1.358135 7.187237 9.076230 -0.219635 8.503627 6.975964 2.216422 1.438748 5.301681 3.430504 -1.828532 1.249124 6.474993 -0.160372 16.965609 28.386770 23.400860 8.132758 9.951761 11.385835 3.045376 4.239219 1.077909 4.093984 -14.145842 3.584220 6.642098 8.108587
1480227042.592000 /muse/elements/raw_fft3 fffffffffffffffffffffffffffffffffffffffffffffffffffffffffffffffffffffffffffffffffffffffffffffffffffffffffffffffffffffffffffffffff  22.085976 24.173891 18.815933 24.017406 30.293558 30.029955 27.221882 32.717834 33.881653 18.212416 29.996716 31.845993 28.554064 24.002722 22.393696 21.700470 19.872852 24.176733 17.181984 21.160166 22.474010 23.697506 15.380464 26.126442 27.232538 19.940594 21.097775 18.813789 16.984871 13.000975 13.318324 15.193789 10.088484 6.982624 12.302376 10.262175 13.504959 16.222029 14.980761 12.096412 9.092573 18.479967 17.789009 17.068644 11.257965 16.834949 9.764634 5.825957 10.179500 17.470989 16.771605 14.695507 13.075405 20.379633 21.218161 15.904836 7.521589 36.354500 44.963131 39.396805 17.671585 11.280313 15.354335 17.988628 10.169331 8.298102 0.626373 6.644186 13.884836 16.809219 10.208117 10.060349 -2.114331 11.539762 10.313043 9.915393 13.098856 4.912951 13.401036 10.018288 11.409339 14.364575 21.131798 11.914422 2.285300 7.066949 11.440674 8.468812 8.266036 12.985694 9.908058 8.916492 -2.839836 14.532477 12.085675 9.251364 0.462383 10.257488 10.663835 6.591592 4.662263 -0.104407 3.577508 0.755751 9.022001 14.463540 5.002422 6.198956 10.542413 2.818775 5.967207 3.442795 10.087812 5.554223 11.616898 25.126337 36.187771 32.658138 10.597294 8.546789 7.387328 4.236372 10.149785 1.019902 8.491722 -0.404598 6.654521 5.496428 0.467399
1480227042.592000 /muse/elements/low_freqs_absolute ffff  0.000000 0.000000 0.000000 0.000000
1480227042.592000 /muse/elements/alpha_absolute ffff  0.000000 0.000000 0.000000 0.000000
1480227042.592000 /muse/elements/beta_absolute ffff  0.000000 0.000000 0.000000 0.000000
1480227042.592000 /muse/elements/delta_absolute ffff  0.000000 0.000000 0.000000 0.000000
1480227042.593000 /muse/elements/gamma_absolute ffff  0.000000 0.000000 0.000000 0.000000
1480227042.593000 /muse/elements/theta_absolute ffff  0.000000 0.000000 0.000000 0.000000
1480227042.593000 /muse/elements/alpha_session_score ffff  0.000000 0.000000 0.000000 0.000000
1480227042.593000 /muse/elements/beta_session_score ffff  0.000000 0.000000 0.000000 0.000000
1480227042.593000 /muse/elements/delta_session_score ffff  0.000000 0.000000 0.000000 0.000000
1480227042.593000 /muse/elements/gamma_session_score ffff  0.000000 0.000000 0.000000 0.000000
1480227042.594000 /muse/elements/theta_session_score ffff  0.000000 0.000000 0.000000 0.000000
1480227042.594000 /muse/eeg ffff  1261.699951 630.027466 842.229919 1263.344849
1480227042.594000 /muse/eeg ffff  419.470001 1682.814941 1263.344849 421.114960
1480227042.594000 /muse/eeg ffff  149.693207 697.471680 608.642700 85.538979
1480227042.594000 /muse/acc fff  449.219452 835.938782 339.844269
1480227042.594000 /muse/acc fff  453.125702 843.751343 343.750549
1480227042.594000 /muse/acc fff  449.219452 843.751343 339.844269
1480227042.594000 /muse/acc fff  449.219452 839.845093 339.844269
1480227042.594000 /muse/eeg ffff  991.923157 276.356689 187.527756 506.653931
1480227042.595000 /muse/eeg/quantization iiii  256 128 128 256
1480227042.595000 /muse/eeg ffff  1682.814941 0.000000 0.000000 927.768921
1480227042.595000 /muse/eeg ffff  419.470001 1052.787476 421.114960 85.538979
1480227042.595000 /muse/eeg ffff  419.470001 1052.787476 210.557480 85.538979
1480227042.595000 /muse/eeg ffff  419.470001 421.114960 0.000000 85.538979
1480227042.595000 /muse/eeg ffff  1261.699951 210.557480 0.000000 927.768921
1480227042.595000 /muse/eeg ffff  840.584961 421.114960 421.114960 927.768921
1480227042.595000 /muse/eeg ffff  419.470001 1052.787476 631.672424 85.538979
1480227042.596000 /muse/eeg ffff  419.470001 421.114960 421.114960 85.538979
1480227042.596000 /muse/eeg ffff  840.584961 210.557480 210.557480 927.768921
1480227042.596000 /muse/eeg ffff  1261.699951 0.000000 210.557480 1348.883911
1480227042.596000 /muse/eeg ffff  419.470001 1052.787476 842.229919 85.538979
1480227042.596000 /muse/eeg ffff  419.470001 842.229919 631.672424 85.538979
1480227042.596000 /muse/eeg ffff  419.470001 421.114960 421.114960 506.653931
1480227042.597000 /muse/eeg ffff  1261.699951 210.557480 421.114960 1348.883911
1480227042.597000 /muse/eeg ffff  419.470001 842.229919 1052.787476 927.768921
1480227042.597000 /muse/acc fff  449.219452 839.845093 339.844269
1480227042.597000 /muse/acc fff  449.219452 839.845093 339.844269
1480227042.597000 /muse/drlref ff  3300000.000000 1048387.125000
1480227042.597000 /muse/acc fff  453.125702 839.845093 339.844269
1480227042.598000 /muse/acc fff  449.219452 839.845093 335.938019
1480227042.598000 /muse/eeg ffff  0.000000 1052.787476 842.229919 927.768921
1480227042.598000 /muse/eeg/quantization iiii  128 128 128 256
1480227042.598000 /muse/eeg ffff  0.000000 210.557480 421.114960 927.768921
1480227042.598000 /muse/eeg ffff  842.229919 210.557480 0.000000 1682.814941
1480227042.598000 /muse/elements/alpha_relative ffff  nan nan nan nan
1480227042.598000 /muse/elements/beta_relative ffff  nan nan nan nan
1480227042.599000 /muse/elements/delta_relative ffff  nan nan nan nan
1480227042.599000 /muse/elements/gamma_relative ffff  nan nan nan nan
1480227042.599000 /muse/elements/theta_relative ffff  nan nan nan nan
1480227042.599000 /muse/elements/horseshoe ffff  4.000000 4.000000 4.000000 4.000000
1480227042.599000 /muse/elements/is_good iiii  0 0 0 0
1480227042.600000 /muse/elements/blink i  0
1480227042.600000 /muse/elements/jaw_clench i  0
1480227042.600000 /muse/elements/touching_forehead i  0
1480227042.600000 /muse/elements/experimental/concentration f  0.000000
1480227042.600000 /muse/elements/experimental/mellow f  0.000000
1480227042.600000 /muse/elements/raw_fft0 fffffffffffffffffffffffffffffffffffffffffffffffffffffffffffffffffffffffffffffffffffffffffffffffffffffffffffffffffffffffffffffffff  13.605335 21.823759 34.124683 33.041931 18.589895 30.588827 33.337303 25.971411 28.745020 26.137140 29.353556 30.694447 27.672657 25.845835 17.712414 21.339069 19.008793 23.333162 12.687566 21.790911 18.153881 18.922327 23.061228 20.961521 10.805160 13.716132 15.565098 13.103579 3.977466 5.589801 18.604815 16.687325 17.249403 13.017663 20.927441 26.196684 21.221069 18.670849 7.967180 15.940042 4.549964 3.798018 20.561571 17.075356 6.134975 11.646223 15.526727 13.725205 16.190969 4.029092 15.666470 4.534944 11.552722 17.959560 15.922985 2.511858 14.524004 35.537796 45.177578 39.926376 13.213685 12.183035 7.378954 9.949764 14.820864 7.201463 13.698442 5.344796 6.676088 15.923562 20.617174 16.530382 9.982327 5.488928 6.668749 4.353888 0.658168 10.983752 12.030513 11.381199 12.184912 25.371937 26.111660 14.540094 12.701247 12.059709 10.368428 6.101940 5.241893 10.615787 17.222431 13.065050 13.046298 18.657999 11.258557 12.371174 8.814075 7.491887 4.030378 -7.799013 -4.991643 11.004786 13.462233 7.194032 1.973259 14.550392 14.914083 11.169314 5.076509 11.804626 -0.688196 9.393678 6.369500 9.006380 8.566978 16.919912 32.253059 28.969807 15.829586 10.440104 9.490551 7.957675 12.370197 9.261612 7.928251 11.450009 6.262548 12.450716 12.970672
1480227042.601000 /muse/elements/raw_fft1 fffffffffffffffffffffffffffffffffffffffffffffffffffffffffffffffffffffffffffffffffffffffffffffffffffffffffffffffffffffffffffffffff  22.958988 27.854849 25.989820 24.580400 21.725029 29.889322 29.658268 15.058079 15.029103 15.377207 13.677879 23.316870 21.093662 18.640207 22.135553 29.884483 35.108170 27.677662 14.361832 19.043629 17.568741 16.566105 19.326662 18.588415 21.088215 11.351685 21.730997 16.279816 4.603763 11.848138 5.540229 22.556896 26.272398 12.589608 20.660666 13.968000 10.359109 18.142918 13.546603 14.283024 12.271156 9.069974 15.960146 12.857867 2.665272 7.484031 14.767062 7.130616 17.032785 10.380797 0.267998 6.178798 2.324953 -0.144064 12.579298 7.205489 15.746274 35.181290 43.626732 38.157219 17.796455 17.400414 10.765429 21.907309 17.459404 14.097192 14.789875 -2.185705 7.936074 9.415320 0.900574 6.461828 14.742072 9.480813 8.898932 5.183710 6.312122 10.572914 13.247627 15.968855 8.805717 18.272570 19.001318 12.356381 5.772324 11.684018 3.955932 9.245807 12.778078 12.401009 7.940156 6.152036 13.895186 11.672314 11.248033 13.145216 9.363125 5.179307 12.559372 7.233321 8.874087 11.791834 -1.239469 14.987679 12.710490 13.073390 13.232729 12.376915 11.666718 6.681680 5.292644 5.926431 10.403456 10.275899 12.552021 23.297434 34.180695 30.381536 6.130153 3.125287 11.189699 5.653796 -9.446896 5.689399 7.266515 9.297262 9.059552 13.040768 7.967702
1480227042.601000 /muse/elements/raw_fft2 fffffffffffffffffffffffffffffffffffffffffffffffffffffffffffffffffffffffffffffffffffffffffffffffffffffffffffffffffffffffffffffffff  18.568748 30.413204 31.735353 33.640385 33.636642 29.311686 26.522181 16.574104 27.490343 20.630672 22.988218 26.096401 28.129395 22.891794 17.814354 25.640100 31.073856 24.033878 21.174301 22.616327 19.261755 20.376068 13.610861 21.399431 20.467089 16.873030 16.565418 16.623123 13.362404 15.228131 9.997665 17.238171 23.678877 14.275352 12.200983 16.276157 17.080273 11.245418 -2.082398 7.818491 12.436181 7.233115 9.440216 15.852188 14.823870 15.970752 17.150286 15.239280 15.819778 16.958332 15.537423 5.286954 5.197766 12.408628 18.201000 16.142494 7.521502 29.000124 38.602951 32.441425 12.543109 11.218951 10.664511 16.630386 17.593000 2.994353 7.651035 -1.006660 1.727815 10.526276 13.278526 8.595439 3.389923 10.536146 7.807938 2.329049 5.547356 6.803751 11.231934 12.385031 9.701628 14.732257 17.706125 15.641473 13.331458 8.693066 9.672680 -0.961787 1.236612 10.212403 10.329103 -2.828992 -3.167606 2.232737 -0.449886 0.476117 8.001384 0.545794 9.803520 0.061169 -1.919178 -0.318866 6.887851 8.802649 -0.702048 8.324317 5.298394 2.367618 3.150870 5.716670 3.924493 0.585166 2.037540 5.432456 -0.085604 17.131922 28.382536 23.608019 8.859694 10.850000 11.602002 0.906628 3.370967 2.567588 3.262679 -4.833628 4.398663 4.993592 7.435811
1480227042.601000 /muse/elements/raw_fft3 fffffffffffffffffffffffffffffffffffffffffffffffffffffffffffffffffffffffffffffffffffffffffffffffffffffffffffffffffffffffffffffffff  19.075686 23.413980 18.303968 23.413992 30.787271 31.494669 28.024635 32.544865 33.112343 23.233826 30.205593 32.075607 29.210241 24.290846 21.912390 21.162661 17.169922 24.115572 16.749937 20.840118 21.394817 24.133995 13.578106 26.259153 27.446909 17.946934 20.465258 18.695847 15.867621 12.642735 11.774951 14.771808 10.979721 8.482774 11.583349 8.645527 15.112435 16.996815 15.297249 12.356410 8.871268 17.518835 16.496025 16.802914 8.609715 15.564898 11.267207 6.822817 11.306296 16.827637 16.616356 14.448062 11.312142 20.829025 20.051311 15.059582 10.814235 36.158173 44.942905 39.364906 16.649389 11.991844 15.045957 18.102976 13.013932 9.916993 0.646828 5.691143 14.845490 17.238998 12.526518 9.453582 3.071772 11.509184 8.831140 10.342898 13.461708 8.303884 12.375041 10.707128 12.072128 15.794019 21.409119 11.174963 5.418397 9.360126 10.555083 8.094754 6.861463 11.581257 9.535652 9.990849 6.150745 13.579419 10.732061 7.697001 4.670790 9.125156 9.987314 5.132807 6.683363 0.876399 3.898690 1.623610 8.755976 14.702502 6.690302 4.536258 9.688683 1.302009 4.677460 2.770734 10.108599 2.953995 11.814226 24.655111 36.104591 32.596924 8.004426 9.483944 5.580462 2.137389 10.310375 4.832476 8.293841 0.021627 6.744676 4.260001 2.980855
1480227042.601000 /muse/elements/low_freqs_absolute ffff  0.000000 0.000000 0.000000 0.000000
1480227042.602000 /muse/elements/alpha_absolute ffff  0.000000 0.000000 0.000000 0.000000
1480227042.602000 /muse/elements/beta_absolute ffff  0.000000 0.000000 0.000000 0.000000
1480227042.602000 /muse/elements/delta_absolute ffff  0.000000 0.000000 0.000000 0.000000
1480227042.602000 /muse/elements/gamma_absolute ffff  0.000000 0.000000 0.000000 0.000000
1480227042.602000 /muse/elements/theta_absolute ffff  0.000000 0.000000 0.000000 0.000000
1480227042.602000 /muse/elements/alpha_session_score ffff  0.000000 0.000000 0.000000 0.000000
1480227042.603000 /muse/elements/beta_session_score ffff  0.000000 0.000000 0.000000 0.000000
1480227042.603000 /muse/elements/delta_session_score ffff  0.000000 0.000000 0.000000 0.000000
1480227042.603000 /muse/elements/gamma_session_score ffff  0.000000 0.000000 0.000000 0.000000
1480227042.603000 /muse/elements/theta_session_score ffff  0.000000 0.000000 0.000000 0.000000
1480227042.604000 /muse/eeg ffff  1052.787476 210.557480 210.557480 1682.814941
1480227042.604000 /muse/eeg ffff  0.000000 1263.344849 631.672424 840.584961
1480227042.604000 /muse/eeg ffff  0.000000 631.672424 421.114960 840.584961
1480227042.604000 /muse/eeg ffff  421.114960 421.114960 210.557480 1261.699951
1480227042.604000 /muse/eeg ffff  1473.902344 210.557480 210.557480 1682.814941
1480227042.604000 /muse/eeg ffff  210.557480 1052.787476 842.229919 840.584961
1480227042.605000 /muse/eeg ffff  0.000000 1052.787476 842.229919 419.470001
1480227042.605000 /muse/eeg ffff  0.000000 421.114960 631.672424 419.470001
1480227042.605000 /muse/eeg ffff  1052.787476 210.557480 421.114960 1261.699951
1480227042.605000 /muse/eeg ffff  842.229919 421.114960 631.672424 1261.699951
1480227042.605000 /muse/eeg ffff  210.557480 1263.344849 842.229919 419.470001
1480227042.605000 /muse/eeg ffff  210.557480 631.672424 631.672424 419.470001
1480227042.606000 /muse/eeg ffff  842.229919 421.114960 421.114960 1261.699951
1480227042.606000 /muse/acc fff  449.219452 839.845093 339.844269
1480227042.606000 /muse/acc fff  449.219452 839.845093 339.844269
1480227042.606000 /muse/acc fff  449.219452 839.845093 339.844269
1480227042.606000 /muse/drlref ff  3300000.000000 1029032.250000
1480227042.607000 /muse/acc fff  449.219452 839.845093 339.844269
1480227042.607000 /muse/eeg ffff  842.229919 0.000000 210.557480 1261.699951
1480227042.607000 /muse/eeg/quantization iiii  256 256 128 256
1480227042.607000 /muse/eeg ffff  0.000000 842.229919 631.672424 0.000000
1480227042.607000 /muse/eeg ffff  0.000000 842.229919 421.114960 0.000000
1480227042.607000 /muse/eeg ffff  0.000000 421.114960 210.557480 421.114960
1480227042.608000 /muse/eeg ffff  842.229919 421.114960 210.557480 1263.344849
1480227042.608000 /muse/eeg ffff  421.114960 842.229919 631.672424 842.229919
1480227042.608000 /muse/eeg ffff  0.000000 1263.344849 631.672424 421.114960
1480227042.608000 /muse/eeg ffff  0.000000 421.114960 421.114960 421.114960
1480227042.608000 /muse/eeg ffff  842.229919 421.114960 210.557480 1263.344849
1480227042.608000 /muse/elements/alpha_relative ffff  nan nan nan nan
1480227042.608000 /muse/elements/beta_relative ffff  nan nan nan nan
1480227042.609000 /muse/elements/delta_relative ffff  nan nan nan nan
1480227042.609000 /muse/elements/gamma_relative ffff  nan nan nan nan
1480227042.609000 /muse/elements/theta_relative ffff  nan nan nan nan
1480227042.609000 /muse/elements/horseshoe ffff  4.000000 4.000000 4.000000 4.000000
1480227042.609000 /muse/elements/is_good iiii  0 0 0 0
1480227042.609000 /muse/elements/blink i  0
1480227042.609000 /muse/elements/jaw_clench i  0
1480227042.610000 /muse/elements/touching_forehead i  0
1480227042.610000 /muse/elements/experimental/concentration f  0.000000
1480227042.610000 /muse/elements/experimental/mellow f  0.000000
1480227042.610000 /muse/elements/raw_fft0 fffffffffffffffffffffffffffffffffffffffffffffffffffffffffffffffffffffffffffffffffffffffffffffffffffffffffffffffffffffffffffffffff  20.513983 23.716194 33.980366 33.478409 20.496752 30.712854 33.103565 26.402704 28.461248 26.677603 29.181625 29.973885 26.659300 25.512701 20.461639 20.829973 17.915503 23.376625 17.715258 22.238920 19.866590 20.116320 22.243160 20.097178 11.843318 13.777239 15.929532 12.420794 3.207620 5.379685 18.588745 16.143196 16.920479 12.001423 20.633686 26.047707 22.207067 19.313534 11.067330 15.532970 6.434734 9.058806 20.313208 16.199232 8.618312 11.751735 14.889835 12.383993 16.021807 8.308284 15.371474 4.212149 12.235469 18.455107 17.026312 7.865982 15.603042 35.871647 45.198074 39.900948 11.836234 13.117491 9.623117 9.939949 14.865951 8.057225 14.399706 4.519080 7.414675 15.254436 20.452705 15.322106 9.402778 5.184100 7.438669 3.106266 1.205740 10.628782 11.795576 10.816402 11.596748 25.125721 25.659498 15.782671 13.766061 12.319151 10.487390 6.826294 4.418257 11.017199 17.273096 12.604375 12.343988 18.668156 12.715669 12.533815 10.515368 9.228621 3.898760 -5.620420 -2.554954 10.772172 13.621221 6.989512 1.321711 13.693443 13.886971 11.261383 7.985974 11.363978 3.145490 9.541729 8.462337 7.938056 8.909163 17.201410 32.404999 28.866053 15.474151 10.081915 9.200827 9.097430 11.894721 10.573811 10.322330 11.332938 7.635076 11.927953 12.752349
1480227042.611000 /muse/elements/raw_fft1 fffffffffffffffffffffffffffffffffffffffffffffffffffffffffffffffffffffffffffffffffffffffffffffffffffffffffffffffffffffffffffffffff  21.682163 26.972155 24.484835 24.026524 21.241968 29.952311 30.277969 19.304832 13.783481 14.113371 11.976741 23.025517 21.410725 19.372601 21.879417 29.569767 34.682198 27.087198 12.919613 18.442705 17.321489 17.659870 19.422033 18.944994 20.787226 11.589352 21.821236 16.164652 6.273516 12.586898 8.785075 22.651382 26.450375 16.962212 20.269154 14.477033 11.938442 17.514448 11.829104 13.876086 11.462072 8.517512 16.285349 14.418256 3.382088 7.726896 14.725201 9.386178 17.313917 11.200743 1.391656 6.712950 4.616960 -0.922030 12.069999 7.537968 15.595024 35.067390 43.655945 38.186218 16.769575 17.982819 12.839819 21.818386 17.656998 14.766804 14.412670 0.679902 7.395464 9.107038 0.882762 6.711128 13.977962 11.143732 9.906568 5.325988 5.953072 11.198023 13.946536 15.981688 10.218212 17.521402 19.054459 13.288296 4.822082 11.399907 5.107161 9.321693 13.573795 13.248121 9.770806 8.994166 13.929477 12.100741 11.383512 12.168738 8.901433 7.420056 12.900062 8.794787 9.215754 11.320627 3.982783 15.119773 11.999792 12.245213 13.830601 12.076011 10.752911 7.979246 6.692187 5.753811 10.818591 11.434036 13.478942 23.306770 34.214619 30.586485 5.307137 6.603123 10.363791 4.776181 -5.492410 4.495719 5.830668 8.770761 10.300217 14.214225 11.863843
1480227042.611000 /muse/elements/raw_fft2 fffffffffffffffffffffffffffffffffffffffffffffffffffffffffffffffffffffffffffffffffffffffffffffffffffffffffffffffffffffffffffffffff  18.027815 28.956434 31.241972 33.461159 33.201668 28.150978 26.566891 16.041143 27.717558 19.496763 23.758024 24.911112 27.491697 22.960232 18.656481 24.609030 30.977468 22.774769 21.891150 22.759417 17.876286 20.059551 16.524740 21.907469 19.645853 15.896426 15.461221 15.601254 13.242526 14.727043 11.272565 18.146872 24.106165 16.404396 11.252504 15.916809 16.723717 10.116831 1.352010 6.603899 12.378570 6.355481 9.661992 16.077967 15.490515 16.755758 16.815319 14.834743 14.804478 15.968569 15.215182 3.667690 6.190131 11.587547 17.725740 16.202307 6.944515 28.956688 38.596355 32.575027 13.115156 10.585058 9.532452 16.922213 17.849125 4.611718 7.359821 -1.435479 2.643710 9.493459 13.531147 8.323121 4.304160 10.686072 8.809303 4.695023 6.142399 5.749188 11.151829 12.034780 10.106555 14.546682 17.401270 15.335423 12.901068 9.245513 9.626905 -1.079461 0.665347 10.537759 10.813840 1.766342 -0.015437 1.965894 -0.239372 2.420038 8.476416 4.605554 9.635265 -0.481958 -3.426905 -1.108599 6.784765 8.622292 -2.153327 8.221381 3.761644 2.200383 4.369867 6.547987 5.367013 2.884211 1.149725 4.809071 -1.259729 17.289057 28.395359 23.945736 9.698500 11.337399 11.376991 -0.508050 3.589601 2.028757 2.872002 -1.348266 5.179723 3.313004 6.709177
1480227042.611000 /muse/elements/raw_fft3 fffffffffffffffffffffffffffffffffffffffffffffffffffffffffffffffffffffffffffffffffffffffffffffffffffffffffffffffffffffffffffffffff  17.465899 23.367424 18.504093 22.711245 31.157566 32.385960 29.016016 32.522987 32.154953 25.753881 30.003542 32.123573 29.389519 24.222130 21.731556 20.827141 16.533417 24.447767 15.509621 20.689505 20.002382 24.368444 15.337025 26.340387 27.634304 16.323004 19.590338 17.941999 15.029243 12.443033 11.872106 13.825896 12.515023 8.493320 11.408649 10.732149 16.886969 18.259714 15.973811 12.721606 10.275188 16.434084 15.256142 16.390442 8.595191 14.405311 11.822957 9.525559 12.964220 15.971408 15.901386 14.823177 11.651930 20.496311 19.368235 14.334379 12.950518 35.924427 44.921368 39.318226 15.326031 12.414334 14.037364 18.714979 14.988779 10.597753 1.485283 4.277099 15.519290 17.445354 13.970213 9.087693 5.116695 11.516088 7.350618 10.736820 13.336663 10.300607 11.164255 10.980747 12.480593 17.358858 21.774843 9.764998 8.487288 10.782393 9.826644 7.280688 5.555269 10.477002 9.300967 11.139960 9.728386 12.763896 9.564906 6.318097 7.278955 7.645878 9.623765 4.037442 7.545671 2.334272 3.518917 3.085708 8.724642 14.686248 7.971504 3.411919 9.456813 0.112622 4.203605 1.986138 9.523928 2.890256 11.895862 24.590544 35.991753 32.531849 8.479502 10.219609 4.029574 1.255660 9.846074 7.122156 8.273705 -0.523398 6.609818 2.952570 4.451239
1480227042.612000 /muse/elements/low_freqs_absolute ffff  0.000000 0.000000 0.000000 0.000000
1480227042.612000 /muse/elements/alpha_absolute ffff  0.000000 0.000000 0.000000 0.000000
1480227042.612000 /muse/elements/beta_absolute ffff  0.000000 0.000000 0.000000 0.000000
1480227042.612000 /muse/elements/delta_absolute ffff  0.000000 0.000000 0.000000 0.000000
1480227042.612000 /muse/elements/gamma_absolute ffff  0.000000 0.000000 0.000000 0.000000
1480227042.612000 /muse/elements/theta_absolute ffff  0.000000 0.000000 0.000000 0.000000
1480227042.612000 /muse/elements/alpha_session_score ffff  0.000000 0.000000 0.000000 0.000000
1480227042.612000 /muse/elements/beta_session_score ffff  0.000000 0.000000 0.000000 0.000000
1480227042.612000 /muse/elements/delta_session_score ffff  0.000000 0.000000 0.000000 0.000000
1480227042.613000 /muse/elements/gamma_session_score ffff  0.000000 0.000000 0.000000 0.000000
1480227042.613000 /muse/elements/theta_session_score ffff  0.000000 0.000000 0.000000 0.000000
1480227042.613000 /muse/eeg ffff  842.229919 421.114960 421.114960 1263.344849
1480227042.613000 /muse/eeg ffff  0.000000 1263.344849 842.229919 421.114960
1480227042.613000 /muse/eeg ffff  0.000000 842.229919 631.672424 421.114960
1480227042.613000 /muse/eeg ffff  421.114960 421.114960 421.114960 842.229919
1480227042.613000 /muse/eeg ffff  1263.344849 421.114960 421.114960 1263.344849
1480227042.613000 /muse/eeg ffff  421.114960 1263.344849 1052.787476 421.114960
1480227042.613000 /muse/eeg ffff  421.114960 1263.344849 1052.787476 0.000000
1480227042.613000 /muse/acc fff  449.219452 839.845093 339.844269
1480227042.613000 /muse/acc fff  449.219452 839.845093 339.844269
1480227042.614000 /muse/acc fff  449.219452 843.751343 339.844269
1480227042.614000 /muse/eeg ffff  842.229919 421.114960 1052.787476 0.000000
1480227042.614000 /muse/eeg/quantization iiii  256 128 128 256
1480227042.614000 /muse/eeg ffff  1682.814941 0.000000 842.229919 842.229919
1480227042.614000 /muse/eeg ffff  1682.814941 210.557480 1263.344849 842.229919
1480227042.615000 /muse/eeg ffff  840.584961 1052.787476 1473.902344 0.000000
1480227042.615000 /muse/eeg ffff  840.584961 421.114960 1052.787476 0.000000
1480227042.615000 /muse/eeg ffff  1261.699951 210.557480 842.229919 842.229919
1480227042.615000 /muse/eeg ffff  1682.814941 0.000000 842.229919 1263.344849
1480227042.615000 /muse/eeg ffff  419.470001 1052.787476 1473.902344 0.000000
1480227042.615000 /muse/eeg ffff  419.470001 1052.787476 1263.344849 0.000000
1480227042.615000 /muse/eeg ffff  419.470001 421.114960 1052.787476 421.114960
1480227042.615000 /muse/eeg ffff  1261.699951 210.557480 842.229919 1263.344849
1480227042.615000 /muse/eeg ffff  840.584961 631.672424 1263.344849 842.229919
1480227042.616000 /muse/eeg ffff  419.470001 1263.344849 1263.344849 421.114960
1480227042.616000 /muse/eeg ffff  419.470001 421.114960 842.229919 421.114960
1480227042.616000 /muse/eeg ffff  1261.699951 421.114960 631.672424 1263.344849
1480227042.616000 /muse/elements/alpha_relative ffff  nan nan nan nan
1480227042.616000 /muse/elements/beta_relative ffff  nan nan nan nan
1480227042.616000 /muse/elements/delta_relative ffff  nan nan nan nan
1480227042.617000 /muse/elements/gamma_relative ffff  nan nan nan nan
1480227042.617000 /muse/elements/theta_relative ffff  nan nan nan nan
1480227042.617000 /muse/elements/horseshoe ffff  4.000000 4.000000 4.000000 4.000000
1480227042.617000 /muse/elements/is_good iiii  0 0 0 0
1480227042.617000 /muse/elements/blink i  0
1480227042.617000 /muse/elements/jaw_clench i  0
1480227042.617000 /muse/elements/touching_forehead i  0
1480227042.618000 /muse/elements/experimental/concentration f  0.000000
1480227042.618000 /muse/elements/experimental/mellow f  0.000000
1480227042.618000 /muse/elements/raw_fft0 fffffffffffffffffffffffffffffffffffffffffffffffffffffffffffffffffffffffffffffffffffffffffffffffffffffffffffffffffffffffffffffffff  19.353357 23.499077 33.675381 33.821648 22.368122 30.841972 32.727890 26.166956 28.001083 26.612118 28.861597 29.168583 25.633404 25.175606 21.392069 20.488453 16.699905 23.216450 20.148603 22.805166 20.430429 21.265581 21.504192 19.403299 14.678101 13.811106 16.039005 12.212768 2.860573 4.557320 18.530430 16.601330 16.716736 11.446669 20.433460 25.660311 22.674072 19.724081 12.822181 15.187988 8.648582 11.452566 20.134039 15.251412 10.317633 11.929099 14.380587 11.976158 16.197100 11.582780 14.795044 6.098816 11.997883 19.034878 17.843115 10.934525 16.424181 36.157024 45.198318 39.857994 12.012420 13.993504 11.495587 10.420685 15.008512 10.230291 14.780753 4.080051 8.294198 14.959662 20.329067 14.082548 9.056593 5.305069 7.604059 2.189503 4.122258 10.336639 11.511042 11.389774 13.203477 24.906164 25.156504 15.898061 14.775398 12.257524 10.098259 7.808824 3.232500 11.031878 17.305998 11.869804 12.297564 18.671049 13.154111 12.354114 11.643239 10.376186 4.308342 -3.146125 0.539210 10.461883 13.471828 7.329540 0.228146 13.035940 12.822328 10.851336 9.764963 10.916126 4.630205 10.281067 9.163068 7.285532 9.406484 18.796473 32.640251 28.943254 15.645402 11.023499 9.864305 9.929837 11.397982 10.942904 12.332671 10.747370 8.272445 11.284786 12.122504
1480227042.618000 /muse/elements/raw_fft1 fffffffffffffffffffffffffffffffffffffffffffffffffffffffffffffffffffffffffffffffffffffffffffffffffffffffffffffffffffffffffffffffff  20.765839 25.929474 23.375067 23.652321 20.274275 29.916927 30.891582 21.614052 14.039324 13.683042 11.216222 22.864292 21.598967 20.478752 22.128601 29.419117 34.210217 26.513607 12.443891 17.721193 16.863480 18.328558 19.553097 19.355379 20.508909 12.262600 21.932396 16.361994 8.465452 14.012726 10.121421 22.726727 26.583254 18.856649 19.749311 14.577482 12.703497 16.907326 10.818291 13.575538 11.337687 10.317645 16.968060 15.126664 5.876831 8.295540 14.373499 12.892694 17.725939 10.950648 4.398836 6.993287 5.674373 2.359447 11.204878 9.314896 15.494915 34.858208 43.671154 38.231716 16.416883 18.585186 14.721928 21.422604 18.082827 15.020796 14.333163 0.709622 6.927528 8.622659 1.252761 7.365649 13.119489 11.942823 10.774168 5.797106 5.774296 11.409148 14.218325 15.791268 10.928613 16.840435 18.906475 13.659952 5.707795 11.179197 5.681417 9.372555 13.862871 13.827591 10.781099 10.673284 13.697101 12.309516 11.318126 11.177347 8.299660 8.581115 13.126807 9.514860 9.294146 10.730404 6.219566 15.243109 11.436865 11.655413 13.916010 11.810242 9.626230 9.451028 6.986008 5.834478 10.608601 12.310317 14.598046 22.817484 34.256268 30.843681 8.967504 9.038080 9.691936 4.296069 -4.978939 3.688133 4.894946 8.381559 10.716677 15.041135 14.285610
1480227042.618000 /muse/elements/raw_fft2 fffffffffffffffffffffffffffffffffffffffffffffffffffffffffffffffffffffffffffffffffffffffffffffffffffffffffffffffffffffffffffffffff  19.728933 27.756962 30.714811 32.878258 32.939190 27.436626 26.721518 15.695638 28.237562 20.227446 24.225489 23.858866 27.013172 22.402050 19.544239 24.305504 30.905310 21.716646 22.392622 22.464764 17.278734 19.990211 17.886032 22.357391 19.352970 15.071422 14.497394 14.589152 12.826475 14.208601 13.875315 19.503241 24.396832 17.516388 10.786564 15.733252 16.445295 9.139681 2.906713 5.467145 12.208809 6.076066 9.813032 16.033546 15.621747 17.181829 16.437273 14.311372 13.849593 15.057779 14.634611 4.690262 7.838625 10.697071 16.997517 16.172977 7.881349 28.920555 38.607689 32.810902 13.709422 9.676998 8.392690 16.935410 18.094194 7.144433 7.562380 -0.857112 3.889133 8.347069 13.674691 8.600198 5.071660 10.642181 9.296967 6.767025 6.580805 5.012193 10.798037 11.438157 10.024242 14.129225 16.946287 14.701539 12.341244 9.148836 9.572958 -1.220210 0.223212 10.682403 11.076702 4.461841 2.799648 1.795691 -0.106810 4.023453 9.029561 6.408757 9.509979 -0.620595 -4.647118 -1.493761 6.797665 8.644344 -2.077304 7.986536 2.913445 2.254392 4.530718 7.892196 6.630946 4.139757 -0.008624 4.513430 -2.273057 17.395945 28.410667 24.282387 10.113556 11.260999 11.241664 -0.131857 2.985228 1.811045 2.487395 1.710517 5.627369 2.293342 6.063220
1480227042.618000 /muse/elements/raw_fft3 fffffffffffffffffffffffffffffffffffffffffffffffffffffffffffffffffffffffffffffffffffffffffffffffffffffffffffffffffffffffffffffffff  19.988722 24.197649 19.822880 21.696159 31.458487 32.849987 29.414776 32.497486 31.128963 26.875132 29.582588 31.919727 29.414591 23.696461 22.110699 21.097546 18.481825 24.683187 16.030056 20.868227 18.945002 24.534784 17.003160 26.395569 27.822063 16.340498 18.767441 17.195847 13.898147 12.470135 11.920911 13.032367 13.986750 8.403676 11.564657 13.996323 18.770102 19.162546 16.446503 13.972052 11.657751 15.384287 14.186349 16.008846 10.693715 13.470438 12.253589 12.051975 14.048897 15.200081 15.139695 15.032744 12.104915 20.106415 18.837557 13.952322 13.565995 35.725468 44.895412 39.306164 14.708526 12.550840 13.327392 19.000128 16.349440 11.760468 2.809150 3.181713 16.051817 17.275179 14.937039 9.606641 7.040447 11.868443 7.352476 10.339691 13.308071 10.856629 10.118809 10.941696 12.483043 18.469913 22.292215 9.693656 11.244757 11.966599 8.989651 6.583419 5.214969 9.803667 9.230243 11.971171 11.756926 12.223199 8.721156 6.125546 8.783939 6.586836 9.350666 4.055626 8.736500 2.458810 3.382387 4.020654 8.511570 14.499671 8.935912 4.334187 9.271597 0.003062 3.338205 0.978765 9.336549 3.863063 11.797943 24.791483 35.847317 32.444405 11.203096 10.508572 3.287515 0.966300 9.903840 7.307146 8.662596 -0.658462 6.588274 2.011566 5.772007
1480227042.618000 /muse/elements/low_freqs_absolute ffff  0.000000 0.000000 0.000000 0.000000
1480227042.619000 /muse/elements/alpha_absolute ffff  0.000000 0.000000 0.000000 0.000000
1480227042.619000 /muse/elements/beta_absolute ffff  0.000000 0.000000 0.000000 0.000000
1480227042.619000 /muse/elements/delta_absolute ffff  0.000000 0.000000 0.000000 0.000000
1480227042.619000 /muse/elements/gamma_absolute ffff  0.000000 0.000000 0.000000 0.000000
1480227042.619000 /muse/elements/theta_absolute ffff  0.000000 0.000000 0.000000 0.000000
1480227042.619000 /muse/elements/alpha_session_score ffff  0.000000 0.000000 0.000000 0.000000
1480227042.619000 /muse/elements/beta_session_score ffff  0.000000 0.000000 0.000000 0.000000
1480227042.619000 /muse/elements/delta_session_score ffff  0.000000 0.000000 0.000000 0.000000
1480227042.619000 /muse/elements/gamma_session_score ffff  0.000000 0.000000 0.000000 0.000000
1480227042.619000 /muse/elements/theta_session_score ffff  0.000000 0.000000 0.000000 0.000000
1480227042.619000 /muse/eeg ffff  1261.699951 421.114960 631.672424 1263.344849
1480227042.619000 /muse/acc fff  453.125702 839.845093 339.844269
1480227042.619000 /muse/acc fff  449.219452 839.845093 339.844269
1480227042.620000 /muse/drlref ff  3300000.000000 1048387.125000
1480227042.620000 /muse/acc fff  449.219452 843.751343 339.844269
1480227042.620000 /muse/acc fff  449.219452 839.845093 339.844269
1480227042.620000 /muse/eeg ffff  0.000000 1263.344849 842.229919 0.000000
1480227042.620000 /muse/eeg/quantization iiii  256 128 128 256
1480227042.620000 /muse/eeg ffff  0.000000 631.672424 421.114960 0.000000
1480227042.620000 /muse/eeg ffff  421.114960 210.557480 210.557480 421.114960
1480227042.620000 /muse/eeg ffff  1263.344849 0.000000 0.000000 1263.344849
1480227042.620000 /muse/eeg ffff  421.114960 842.229919 631.672424 421.114960
1480227042.620000 /muse/eeg ffff  0.000000 1052.787476 631.672424 0.000000
1480227042.620000 /muse/eeg ffff  0.000000 210.557480 421.114960 0.000000
1480227042.620000 /muse/eeg ffff  842.229919 0.000000 210.557480 842.229919
1480227042.620000 /muse/eeg ffff  842.229919 210.557480 631.672424 842.229919
1480227042.620000 /muse/eeg ffff  0.000000 1263.344849 842.229919 0.000000
1480227042.620000 /muse/eeg ffff  0.000000 631.672424 631.672424 0.000000
1480227042.620000 /muse/eeg ffff  842.229919 210.557480 421.114960 842.229919
1480227042.620000 /muse/eeg ffff  1263.344849 0.000000 421.114960 1263.344849
1480227042.620000 /muse/eeg ffff  0.000000 1052.787476 1052.787476 0.000000
1480227042.620000 /muse/eeg ffff  0.000000 1052.787476 842.229919 0.000000
1480227042.621000 /muse/eeg ffff  421.114960 421.114960 631.672424 421.114960
1480227042.621000 /muse/acc fff  449.219452 839.845093 339.844269
1480227042.621000 /muse/acc fff  449.219452 839.845093 339.844269
1480227042.621000 /muse/acc fff  449.219452 839.845093 339.844269
1480227042.621000 /muse/drlref ff  3300000.000000 1035483.875000
1480227042.621000 /muse/acc fff  449.219452 839.845093 339.844269
1480227042.621000 /muse/eeg ffff  1263.344849 0.000000 421.114960 842.229919
1480227042.621000 /muse/eeg/quantization iiii  256 128 128 256
1480227042.622000 /muse/eeg ffff  842.229919 421.114960 842.229919 421.114960
1480227042.622000 /muse/eeg ffff  421.114960 1052.787476 842.229919 0.000000
1480227042.622000 /muse/eeg ffff  421.114960 210.557480 631.672424 0.000000
1480227042.622000 /muse/eeg ffff  1263.344849 0.000000 421.114960 842.229919
1480227042.622000 /muse/elements/alpha_relative ffff  nan nan nan nan
1480227042.622000 /muse/elements/beta_relative ffff  nan nan nan nan
1480227042.622000 /muse/elements/delta_relative ffff  nan nan nan nan
1480227042.622000 /muse/elements/gamma_relative ffff  nan nan nan nan
1480227042.622000 /muse/elements/theta_relative ffff  nan nan nan nan
1480227042.622000 /muse/elements/horseshoe ffff  4.000000 4.000000 4.000000 4.000000
1480227042.622000 /muse/elements/is_good iiii  0 0 0 0
1480227042.622000 /muse/elements/blink i  0
1480227042.622000 /muse/elements/jaw_clench i  0
1480227042.622000 /muse/elements/touching_forehead i  0
1480227042.622000 /muse/elements/experimental/concentration f  0.000000
1480227042.622000 /muse/elements/experimental/mellow f  0.000000
1480227042.622000 /muse/elements/raw_fft0 fffffffffffffffffffffffffffffffffffffffffffffffffffffffffffffffffffffffffffffffffffffffffffffffffffffffffffffffffffffffffffffffff  18.384331 22.739370 33.389118 33.971413 23.393188 30.831205 32.382824 25.615820 27.279039 26.335102 28.435390 28.506769 24.751972 24.687870 21.828033 19.996134 16.338245 22.947222 21.455517 23.056049 20.468437 21.946707 20.971004 19.064381 17.169886 13.637431 16.234085 12.447696 3.540420 4.121000 18.575439 17.207230 16.732906 11.140582 20.279217 25.117792 22.668688 19.900084 13.561236 14.763677 10.553429 12.325300 19.987518 14.616568 11.377892 12.406670 14.394055 13.117145 16.647509 13.237304 14.151950 7.101392 11.678024 19.182108 18.710402 12.887703 17.055035 36.287067 45.182816 39.783634 13.230453 14.672271 12.388538 12.038472 14.694451 12.050813 15.011741 5.315978 9.757119 15.480780 20.236458 13.354357 9.086277 5.024939 8.147158 3.508135 5.822675 10.120774 11.006990 12.671026 14.888103 24.638611 24.647257 15.538044 15.290256 12.170174 9.652452 8.187631 2.391646 10.962206 17.234606 11.187005 12.756906 18.619999 12.963923 11.946010 12.072971 11.187304 5.295732 -1.171940 2.433595 10.023007 13.154875 7.868017 -0.287534 12.428692 11.896708 10.350115 10.665576 10.487806 5.553178 10.788388 9.564232 6.587034 9.864613 20.669472 32.926033 29.211512 16.303978 12.326025 10.246472 10.575626 10.935888 11.592088 13.315394 10.137990 8.554094 10.465281 11.409652
1480227042.622000 /muse/elements/raw_fft1 fffffffffffffffffffffffffffffffffffffffffffffffffffffffffffffffffffffffffffffffffffffffffffffffffffffffffffffffffffffffffffffffff  19.874506 25.198078 22.664776 23.344275 19.917824 30.003300 31.206810 23.373026 15.131646 13.512962 11.371174 22.856815 21.403629 21.308962 22.751432 29.184721 33.741230 25.901487 12.291692 17.031115 16.234814 18.589252 19.483088 19.554819 20.275761 12.598364 21.917963 16.932283 10.340019 15.044299 10.980081 22.700233 26.665285 19.537266 19.125692 14.271126 12.955774 16.290167 10.479963 13.293799 12.270370 12.491442 17.307198 15.717093 7.559831 8.881592 13.891308 15.709420 18.176189 10.176941 6.474495 6.740120 6.383045 3.534889 10.332194 10.731541 15.144015 34.651062 43.675404 38.294109 17.281956 19.082798 15.163105 21.011404 18.147705 15.162364 14.148778 0.155359 6.549294 8.136000 2.359513 7.804525 12.310301 12.175368 11.623176 5.735530 5.333355 11.549567 14.002810 15.436581 11.386910 16.388624 18.595631 13.514412 7.190768 10.888344 5.888657 9.073380 13.876676 14.018882 11.105608 11.632959 13.212951 12.197962 11.115002 10.250943 7.457131 9.380219 12.969858 9.859621 9.010056 9.956285 7.530841 15.202793 11.151981 11.354651 13.637769 11.461208 8.872504 10.317852 7.838295 5.157755 10.000220 12.865996 15.445722 22.252268 34.302280 31.117899 12.431160 10.629391 9.181687 3.983544 -4.497901 3.493927 4.244384 8.023998 10.553476 15.544668 15.722544
1480227042.622000 /muse/elements/raw_fft2 fffffffffffffffffffffffffffffffffffffffffffffffffffffffffffffffffffffffffffffffffffffffffffffffffffffffffffffffffffffffffffffffff  20.981552 26.963049 30.277487 32.118759 32.896332 27.483612 26.630590 18.494339 29.037678 22.495663 24.311804 23.346262 26.715137 21.567238 20.220680 24.769278 30.891926 21.709028 22.566563 21.920954 17.279787 20.068254 18.238386 22.674490 19.735495 14.530146 13.682509 13.626039 12.788089 14.384302 15.943208 20.829918 24.533251 17.886152 10.806972 15.646223 16.357641 8.797237 3.283562 4.557259 12.129591 6.577194 9.563569 15.908004 15.224140 17.264116 16.252636 14.005260 13.214072 14.275880 14.084113 7.427448 8.601067 10.037082 16.268272 15.938526 9.155451 28.940672 38.626678 33.055035 14.106483 8.728271 7.535353 16.963091 18.107027 9.323387 7.745504 0.905218 5.180543 7.498077 13.721209 9.422110 5.864193 10.294118 9.445303 8.065711 6.990566 4.935545 10.318263 10.712661 9.738634 13.659507 16.412725 13.946371 11.784022 8.841013 9.404160 -1.183535 -0.203376 10.724203 11.038679 5.936885 4.813803 2.213871 0.469041 5.334200 9.246656 7.347139 9.231215 -0.110102 -5.184752 -1.640252 6.917250 8.700429 -0.351067 7.686182 2.986996 2.466731 4.510284 8.888470 7.565680 4.824439 -0.824280 4.337400 -3.096370 17.412130 28.412870 24.540588 9.920553 10.814887 11.224459 0.111393 2.539968 1.375957 2.078333 4.075435 5.982801 2.100813 5.406013
1480227042.622000 /muse/elements/raw_fft3 fffffffffffffffffffffffffffffffffffffffffffffffffffffffffffffffffffffffffffffffffffffffffffffffffffffffffffffffffffffffffffffffff  19.079975 23.747360 21.870588 20.943193 31.839979 32.932098 29.207882 32.407238 30.193834 27.416714 28.983887 31.591988 29.464310 23.197161 22.619272 21.346022 20.598934 24.837025 17.642843 21.279413 19.098143 24.694881 17.581884 26.377354 28.063120 17.815901 18.005634 16.476540 13.093696 12.644096 11.894479 12.765203 15.266762 8.112198 12.068384 16.735012 20.360434 19.588518 16.563593 15.105207 12.948882 14.530114 13.712393 15.686516 12.613078 13.063955 12.598228 13.980404 14.716085 14.548218 14.604372 15.057587 12.794358 19.539927 18.424791 14.016665 13.174402 35.578136 44.872368 39.328903 14.879267 12.793339 13.134122 19.022152 17.200439 12.416380 6.026735 4.619405 16.444313 16.830832 15.532692 11.109395 9.016584 12.581758 8.348489 9.621779 13.011996 11.145518 9.179067 10.633723 12.190248 19.127583 22.959515 12.245424 13.150549 12.901903 8.248047 5.935681 5.683484 9.444197 9.541287 12.324179 12.908656 12.112826 8.243539 6.952722 9.569981 6.436049 9.478447 5.658255 9.624989 2.722157 3.396245 4.630404 7.925479 14.242063 9.432268 5.807849 9.201321 0.518372 3.062047 0.926313 9.138681 4.918386 11.813178 24.932335 35.678234 32.294785 13.133668 10.419918 3.243185 3.277045 9.711085 7.408642 8.394965 2.042541 6.942874 2.570365 7.013731
1480227042.622000 /muse/elements/low_freqs_absolute ffff  0.000000 0.000000 0.000000 0.000000
1480227042.622000 /muse/elements/alpha_absolute ffff  0.000000 0.000000 0.000000 0.000000
1480227042.623000 /muse/elements/beta_absolute ffff  0.000000 0.000000 0.000000 0.000000
1480227042.623000 /muse/elements/delta_absolute ffff  0.000000 0.000000 0.000000 0.000000
1480227042.623000 /muse/elements/gamma_absolute ffff  0.000000 0.000000 0.000000 0.000000
1480227042.623000 /muse/elements/theta_absolute ffff  0.000000 0.000000 0.000000 0.000000
1480227042.623000 /muse/elements/alpha_session_score ffff  0.000000 0.000000 0.000000 0.000000
1480227042.623000 /muse/elements/beta_session_score ffff  0.000000 0.000000 0.000000 0.000000
1480227042.623000 /muse/elements/delta_session_score ffff  0.000000 0.000000 0.000000 0.000000
1480227042.623000 /muse/elements/gamma_session_score ffff  0.000000 0.000000 0.000000 0.000000
1480227042.623000 /muse/elements/theta_session_score ffff  0.000000 0.000000 0.000000 0.000000
1480227042.623000 /muse/eeg ffff  1263.344849 0.000000 631.672424 842.229919
1480227042.623000 /muse/eeg ffff  421.114960 1052.787476 1052.787476 0.000000
1480227042.623000 /muse/eeg ffff  421.114960 842.229919 842.229919 0.000000
1480227042.623000 /muse/eeg ffff  842.229919 421.114960 631.672424 421.114960
1480227042.623000 /muse/eeg ffff  1263.344849 210.557480 421.114960 1263.344849
1480227042.623000 /muse/eeg ffff  421.114960 1052.787476 1052.787476 421.114960
1480227042.624000 /muse/eeg ffff  0.000000 1473.902344 1052.787476 0.000000
1480227042.624000 /muse/eeg ffff  0.000000 631.672424 842.229919 0.000000
1480227042.624000 /muse/eeg ffff  842.229919 421.114960 631.672424 842.229919
1480227042.624000 /muse/eeg ffff  842.229919 631.672424 1052.787476 842.229919
1480227042.624000 /muse/eeg ffff  0.000000 1682.814941 1263.344849 0.000000
1480227042.624000 /muse/acc fff  449.219452 843.751343 343.750549
1480227042.624000 /muse/acc fff  449.219452 843.751343 339.844269
1480227042.624000 /muse/acc fff  449.219452 839.845093 335.938019
1480227042.624000 /muse/eeg ffff  421.114960 840.584961 631.672424 421.114960
1480227042.624000 /muse/eeg/quantization iiii  256 256 128 256
1480227042.624000 /muse/eeg ffff  1263.344849 0.000000 421.114960 1263.344849
1480227042.624000 /muse/eeg ffff  1682.814941 0.000000 421.114960 1682.814941
1480227042.624000 /muse/eeg ffff  840.584961 842.229919 1052.787476 419.470001
1480227042.624000 /muse/eeg ffff  419.470001 842.229919 842.229919 419.470001
1480227042.625000 /muse/eeg ffff  840.584961 0.000000 631.672424 840.584961
1480227042.625000 /muse/eeg ffff  1682.814941 0.000000 421.114960 1682.814941
1480227042.625000 /muse/eeg ffff  1682.814941 421.114960 1052.787476 1261.699951
1480227042.625000 /muse/eeg ffff  840.584961 842.229919 1052.787476 840.584961
1480227042.625000 /muse/eeg ffff  840.584961 421.114960 842.229919 840.584961
1480227042.625000 /muse/eeg ffff  1682.814941 0.000000 631.672424 1682.814941
1480227042.625000 /muse/elements/alpha_relative ffff  nan nan nan nan
1480227042.625000 /muse/elements/beta_relative ffff  nan nan nan nan
1480227042.625000 /muse/elements/delta_relative ffff  nan nan nan nan
1480227042.625000 /muse/elements/gamma_relative ffff  nan nan nan nan
1480227042.625000 /muse/elements/theta_relative ffff  nan nan nan nan
1480227042.625000 /muse/elements/horseshoe ffff  4.000000 4.000000 4.000000 4.000000
1480227042.625000 /muse/elements/is_good iiii  0 0 0 0
1480227042.625000 /muse/elements/blink i  0
1480227042.625000 /muse/elements/jaw_clench i  0
1480227042.625000 /muse/elements/touching_forehead i  0
1480227042.625000 /muse/elements/experimental/concentration f  0.000000
1480227042.625000 /muse/elements/experimental/mellow f  0.000000
1480227042.625000 /muse/elements/raw_fft0 fffffffffffffffffffffffffffffffffffffffffffffffffffffffffffffffffffffffffffffffffffffffffffffffffffffffffffffffffffffffffffffffff  21.105261 22.526213 33.188663 33.946739 23.641241 30.891388 32.085693 25.078623 26.514597 26.156971 28.120443 28.080372 24.002125 24.213360 22.186045 19.597012 16.901001 22.551220 21.932093 23.185835 19.976049 22.460133 20.431677 19.141903 19.079422 13.898939 16.552755 13.791247 6.634937 5.386284 18.514490 17.744089 16.658167 10.789742 20.192827 24.461201 22.437668 19.728342 13.863110 14.272551 12.027795 12.139503 19.878693 14.439052 12.096315 13.136234 14.852032 14.712592 17.276209 13.830773 13.542620 7.402332 10.940740 19.356224 19.035088 14.139082 17.486685 36.254150 45.152699 39.688030 13.880093 14.893916 13.320724 13.095419 14.299081 12.625913 15.284861 7.431032 11.437287 16.399939 20.201334 13.390961 9.212129 4.748146 8.363284 5.604082 7.417899 9.795347 10.561305 13.847999 15.957637 24.257921 24.225452 15.202005 15.325568 12.099551 9.308021 8.358979 2.165472 10.633390 17.188776 10.797493 13.442767 18.504696 12.445475 11.406399 12.002213 11.630623 6.236826 1.664584 2.964171 9.562097 12.758489 8.235204 0.836342 11.965465 11.118144 9.910898 11.060368 10.158928 6.005342 11.212048 9.416814 6.068918 10.003922 22.293982 33.201824 29.570415 16.953180 13.230437 10.204460 10.970683 10.770792 12.251710 14.122578 9.495083 8.518388 9.714075 10.687402
1480227042.625000 /muse/elements/raw_fft1 fffffffffffffffffffffffffffffffffffffffffffffffffffffffffffffffffffffffffffffffffffffffffffffffffffffffffffffffffffffffffffffffff  19.730473 25.158386 22.294758 23.143478 20.553751 30.050516 31.327124 24.308826 16.310705 13.687706 13.433215 22.880280 20.969767 21.603802 23.427031 28.743891 33.296387 25.266371 11.826836 16.354364 15.525452 18.669281 19.144768 19.417496 20.219793 12.690637 21.894938 17.239069 11.525110 16.061235 10.982438 22.596884 26.695019 19.441021 18.462162 13.774502 12.894324 15.673210 10.136133 13.258421 13.329228 13.790864 17.511374 15.886911 8.688900 9.538828 13.730238 17.728071 18.721334 9.580994 7.595008 6.478872 6.338844 5.205535 9.677519 11.432014 14.476556 34.490452 43.679020 38.335621 18.281206 19.317783 15.084720 20.419411 18.086294 15.014977 13.717433 1.200667 6.613682 7.630924 3.361491 8.405181 11.576836 12.136405 12.011187 6.006809 5.279527 11.320015 13.558257 14.941392 11.863271 16.196821 18.180906 13.089112 7.997905 10.576275 5.451258 8.619809 13.658981 13.874079 10.949545 12.021859 12.622766 11.868996 10.756090 9.474505 6.781657 9.563375 12.612918 9.831887 8.436251 9.253897 8.025194 15.113930 10.802217 11.191783 13.198981 10.916595 8.768768 11.205895 8.113190 4.437018 9.342407 13.041017 15.793832 22.125568 34.357864 31.337725 14.457351 11.736219 8.886023 3.393877 -3.317625 2.998582 4.193645 7.492451 10.133317 15.720758 16.508461
1480227042.625000 /muse/elements/raw_fft2 fffffffffffffffffffffffffffffffffffffffffffffffffffffffffffffffffffffffffffffffffffffffffffffffffffffffffffffffffffffffffffffffff  20.780746 26.526243 29.968445 31.463448 33.018185 27.930607 26.244980 21.996183 29.980621 24.673822 24.021915 23.365778 26.624121 20.966425 20.814056 25.414322 30.930357 22.475903 22.465164 21.266479 17.427069 20.265034 17.853167 22.900398 20.442200 14.389636 13.081591 12.877508 12.687652 15.068322 17.733931 21.689346 24.548361 17.675282 11.056967 15.493114 16.478632 9.189226 3.366604 3.923079 12.202247 7.446858 9.109319 15.662134 14.557439 17.113483 16.274475 13.990581 13.094412 13.635549 13.671213 9.135885 9.893908 9.986467 15.543477 15.529757 9.838137 29.009443 38.649239 33.224991 14.283060 8.086647 7.374611 16.818335 18.034891 10.178201 8.301929 2.650612 6.229231 7.193740 13.684532 10.431726 6.326063 9.766528 9.272269 8.708167 7.380598 5.257930 9.818838 10.023307 9.545545 13.350065 15.888259 13.237071 11.353380 8.649629 9.175689 -1.718205 -0.376909 10.779020 10.657694 6.671080 6.088413 3.250252 1.659600 6.053715 9.169060 7.609108 8.886348 0.283799 -5.652017 -1.351216 6.843205 8.833584 1.162325 7.259930 3.699724 2.767909 4.549893 9.633204 8.029098 5.106837 -0.354676 4.071097 -3.166775 17.298342 28.399866 24.694553 9.389062 10.247521 11.063835 0.697482 1.906282 1.004649 1.791661 5.812218 6.198566 2.283078 4.726479
1480227042.626000 /muse/elements/raw_fft3 fffffffffffffffffffffffffffffffffffffffffffffffffffffffffffffffffffffffffffffffffffffffffffffffffffffffffffffffffffffffffffffffff  18.288313 23.279749 23.742531 22.148783 32.113991 32.837517 28.565613 32.263542 29.526619 27.667358 28.417583 31.252262 29.656513 23.298624 22.834238 21.409817 22.057457 24.849031 18.918068 21.726332 20.018572 24.840916 17.511265 26.311312 28.303587 19.199812 17.482883 15.751325 12.962523 12.841015 11.886120 13.439488 15.938857 8.802170 12.881713 19.138533 21.346756 19.743040 16.194414 16.053480 14.037904 14.136847 13.647724 15.527674 13.607340 13.276847 13.031392 15.133003 15.050891 13.956985 14.114674 15.280650 12.524760 18.899733 18.264660 14.328457 12.628884 35.469265 44.856792 39.369854 14.983296 13.014706 12.920802 18.936029 17.538080 12.650017 8.091444 7.654794 16.652361 16.388338 16.052298 12.970000 10.738493 13.151620 9.420156 8.922707 12.660373 11.183466 8.406007 10.403597 11.736197 19.578623 23.640331 15.026684 14.349259 13.454152 7.742637 5.461834 5.966012 9.498975 9.892576 12.310265 13.457783 12.415447 7.915198 7.889097 9.994997 6.877293 9.640507 7.657302 10.125282 3.590286 4.021867 4.479152 7.187625 13.984934 9.353077 7.094291 9.153064 0.933304 3.075379 2.849271 8.662449 5.820374 11.916343 24.874168 35.482239 32.076126 14.022537 9.995880 4.343163 4.350220 9.704632 6.771595 7.998791 4.206968 7.599833 4.266077 8.476054
1480227042.626000 /muse/elements/low_freqs_absolute ffff  0.000000 0.000000 0.000000 0.000000
1480227042.626000 /muse/elements/alpha_absolute ffff  0.000000 0.000000 0.000000 0.000000
1480227042.626000 /muse/elements/beta_absolute ffff  0.000000 0.000000 0.000000 0.000000
1480227042.626000 /muse/elements/delta_absolute ffff  0.000000 0.000000 0.000000 0.000000
1480227042.626000 /muse/elements/gamma_absolute ffff  0.000000 0.000000 0.000000 0.000000
1480227042.626000 /muse/elements/theta_absolute ffff  0.000000 0.000000 0.000000 0.000000
1480227042.626000 /muse/elements/alpha_session_score ffff  0.000000 0.000000 0.000000 0.000000
1480227042.626000 /muse/elements/beta_session_score ffff  0.000000 0.000000 0.000000 0.000000
1480227042.626000 /muse/elements/delta_session_score ffff  0.000000 0.000000 0.000000 0.000000
1480227042.626000 /muse/elements/gamma_session_score ffff  0.000000 0.000000 0.000000 0.000000
1480227042.626000 /muse/elements/theta_session_score ffff  0.000000 0.000000 0.000000 0.000000
1480227042.626000 /muse/eeg ffff  1682.814941 0.000000 631.672424 1682.814941
1480227042.626000 /muse/eeg ffff  840.584961 842.229919 1263.344849 840.584961
1480227042.626000 /muse/eeg ffff  419.470001 842.229919 842.229919 840.584961
1480227042.626000 /muse/eeg ffff  1261.699951 421.114960 631.672424 1261.699951
1480227042.626000 /muse/eeg ffff  1682.814941 421.114960 421.114960 1682.814941
1480227042.626000 /muse/acc fff  453.125702 843.751343 339.844269
1480227042.626000 /muse/acc fff  453.125702 835.938782 339.844269
1480227042.626000 /muse/drlref ff  3300000.000000 1051612.875000
1480227042.627000 /muse/acc fff  457.031952 835.938782 339.844269
1480227042.627000 /muse/acc fff  457.031952 835.938782 335.938019
1480227042.627000 /muse/eeg ffff  840.584961 1263.344849 842.229919 840.584961
1480227042.627000 /muse/eeg/quantization iiii  256 256 128 256
1480227042.627000 /muse/eeg ffff  0.000000 1682.814941 842.229919 0.000000
1480227042.627000 /muse/eeg ffff  0.000000 840.584961 631.672424 0.000000
1480227042.627000 /muse/eeg ffff  842.229919 840.584961 421.114960 842.229919
1480227042.627000 /muse/eeg ffff  842.229919 840.584961 842.229919 842.229919
1480227042.627000 /muse/eeg ffff  0.000000 1682.814941 1263.344849 0.000000
1480227042.627000 /muse/eeg ffff  0.000000 1261.699951 842.229919 0.000000
1480227042.627000 /muse/eeg ffff  842.229919 840.584961 631.672424 842.229919
1480227042.627000 /muse/eeg ffff  1263.344849 840.584961 631.672424 1263.344849
1480227042.627000 /muse/eeg ffff  0.000000 1682.814941 1263.344849 421.114960
1480227042.627000 /muse/eeg ffff  0.000000 1682.814941 1052.787476 0.000000
1480227042.627000 /muse/eeg ffff  0.000000 1261.699951 842.229919 421.114960
1480227042.627000 /muse/eeg ffff  842.229919 1261.699951 631.672424 1263.344849
1480227042.627000 /muse/eeg ffff  421.114960 1682.814941 1052.787476 1263.344849
1480227042.627000 /muse/eeg ffff  0.000000 1682.814941 1263.344849 421.114960
1480227042.627000 /muse/eeg ffff  0.000000 840.584961 842.229919 842.229919
1480227042.627000 /muse/eeg ffff  906.384155 250.037018 157.918106 1401.523193
1480227042.627000 /muse/elements/alpha_relative ffff  nan nan nan nan
1480227042.628000 /muse/elements/beta_relative ffff  nan nan nan nan
1480227042.628000 /muse/elements/delta_relative ffff  nan nan nan nan
1480227042.628000 /muse/elements/gamma_relative ffff  nan nan nan nan
1480227042.628000 /muse/elements/theta_relative ffff  nan nan nan nan
1480227042.628000 /muse/elements/horseshoe ffff  4.000000 4.000000 4.000000 4.000000
1480227042.628000 /muse/elements/is_good iiii  0 0 0 0
1480227042.628000 /muse/elements/blink i  0
1480227042.628000 /muse/elements/jaw_clench i  0
1480227042.628000 /muse/elements/touching_forehead i  0
1480227042.628000 /muse/elements/experimental/concentration f  0.000000
1480227042.628000 /muse/elements/experimental/mellow f  0.000000
1480227042.628000 /muse/elements/raw_fft0 fffffffffffffffffffffffffffffffffffffffffffffffffffffffffffffffffffffffffffffffffffffffffffffffffffffffffffffffffffffffffffffffff  21.359327 22.715361 33.014622 33.782318 23.893469 31.025845 31.996990 24.740650 25.928709 26.389622 28.209558 27.772913 23.425379 23.982634 22.552586 19.533241 17.846291 22.031630 21.965004 23.143251 19.370218 22.913843 19.982147 19.761942 20.219748 15.249599 17.533110 15.000578 8.856154 8.118217 18.287518 18.076830 16.431370 10.248326 20.153353 23.822412 22.133579 19.255642 14.165564 13.893375 12.967899 11.487965 19.835861 14.515622 12.424353 13.874019 15.511634 15.894567 17.870504 13.804603 12.935198 7.721552 10.372905 19.352812 19.086575 14.585981 17.646534 36.105042 45.117607 39.585724 13.909018 14.817066 13.634748 13.912554 13.722922 13.329596 15.074126 9.996788 12.750129 17.291971 20.130833 13.782620 9.726718 4.195961 8.646027 7.761757 7.932946 9.720262 10.464679 14.577072 16.559708 23.780584 23.927776 15.153404 15.059120 12.027359 9.285972 8.323738 2.208855 10.180348 17.170723 11.119496 14.108457 18.336634 11.810775 10.769776 11.790484 11.582817 7.235359 3.065985 3.103938 9.013388 12.308015 8.570596 2.621222 11.596899 10.468176 9.753285 10.883220 10.287367 7.167141 11.090619 9.278021 5.682374 10.033611 23.479448 33.425545 29.874352 17.261084 13.586924 10.193302 11.030782 11.276694 12.764924 14.755578 9.192900 8.420145 9.248566 10.021997
1480227042.628000 /muse/elements/raw_fft1 fffffffffffffffffffffffffffffffffffffffffffffffffffffffffffffffffffffffffffffffffffffffffffffffffffffffffffffffffffffffffffffffff  20.097401 25.273577 22.527042 22.701471 21.952553 29.968666 31.286966 24.614122 17.569698 13.941717 16.884972 22.794016 20.434544 21.633865 23.785593 28.178272 32.895458 24.634214 11.219400 15.764831 15.066997 18.334229 18.877909 19.332520 20.141714 12.860738 21.976799 17.000301 12.543549 16.537498 11.662467 22.598471 26.594002 19.077385 17.810509 13.174063 12.516227 15.156660 9.594790 13.057864 14.308161 14.377158 17.528658 15.662155 9.332662 10.037829 14.107012 19.214312 19.387169 9.926788 7.927298 5.942532 6.591060 5.496173 9.360785 12.255926 13.873766 34.405823 43.684708 38.338985 18.661873 19.331202 14.740151 19.853888 17.740108 14.566620 13.384099 1.390325 6.962169 7.158719 4.540484 9.291102 11.101730 11.782064 12.241634 6.106336 5.266251 10.887574 13.150672 14.429595 12.192324 16.173632 17.726679 12.602740 8.116087 10.196777 4.879603 8.044687 13.281608 13.548761 10.434962 12.066033 12.089474 11.508959 10.273364 8.833577 6.276358 9.518072 12.067873 9.671675 7.857045 8.628952 8.216303 14.987479 10.306327 10.920665 12.739693 10.322028 9.372080 11.732558 8.331219 4.382232 8.681836 12.939697 15.714617 22.559935 34.418201 31.454313 15.299709 12.361935 8.986421 3.205597 -2.958604 2.966809 3.902806 6.918790 9.585381 15.670246 16.802631
1480227042.628000 /muse/elements/raw_fft2 fffffffffffffffffffffffffffffffffffffffffffffffffffffffffffffffffffffffffffffffffffffffffffffffffffffffffffffffffffffffffffffffff  20.503914 26.474150 29.800587 31.067604 33.189457 28.481636 25.646898 24.682064 30.904858 26.166391 23.509838 23.674843 26.711250 20.900637 21.293364 25.792994 30.982971 23.169161 22.210266 20.641649 17.487202 20.402538 17.272293 23.080566 21.131454 14.587687 12.680963 12.237696 12.788522 15.840632 18.917469 22.083284 24.443481 17.163193 11.096047 15.251171 16.708101 10.009410 3.324803 3.528446 12.401333 8.377721 8.472450 15.383156 13.895313 16.819357 16.361221 14.074606 13.418274 13.134118 13.263147 10.578547 10.673920 10.336298 14.883211 15.071434 10.213090 29.078577 38.670307 33.301319 14.200809 7.835902 7.406034 16.678045 17.776972 10.302709 8.807652 4.045041 6.936884 7.191010 13.550346 11.319483 6.436269 9.207527 8.843515 8.925663 7.557311 5.652208 9.313019 9.487650 9.620770 13.211402 15.452585 12.673931 11.022000 8.738782 8.918164 -2.309489 0.428867 10.787466 10.078983 6.947258 6.649550 4.658864 2.712705 6.335636 8.790933 7.571219 8.457869 0.707201 -6.070418 -1.064939 6.588597 8.917816 1.967016 6.743108 4.421886 3.349060 4.933109 10.147266 8.022533 5.057144 0.733100 3.792417 -1.426390 17.033478 28.383986 24.762007 8.786963 9.704635 10.823526 1.075362 1.478567 0.556068 2.126883 6.708445 6.403601 2.233644 4.096902
1480227042.628000 /muse/elements/raw_fft3 fffffffffffffffffffffffffffffffffffffffffffffffffffffffffffffffffffffffffffffffffffffffffffffffffffffffffffffffffffffffffffffffff  17.945770 22.778694 25.272524 24.867949 32.222977 32.595322 27.995312 32.123737 29.051422 27.838770 27.999949 30.958305 29.997143 23.805309 22.922132 21.111563 23.092014 24.642923 19.437023 22.152775 20.852081 24.838459 17.768251 26.345339 28.371063 20.382656 17.130608 15.187364 13.092983 12.783803 11.495630 14.274014 16.632973 9.812350 14.163353 20.974321 21.880127 19.616604 15.577646 16.823179 14.670185 14.213846 14.076420 15.149287 14.319082 13.656844 13.297477 15.703488 15.199836 13.350536 13.901998 15.215800 12.131763 18.282101 17.957762 14.871694 12.512009 35.382610 44.848957 39.416744 14.554982 13.181441 12.814965 18.622763 17.568136 12.617845 9.059828 9.960977 16.615665 16.281328 16.716925 14.632836 11.829723 13.384707 10.516739 8.364840 12.298337 11.013921 7.797722 10.272187 11.639973 20.009245 24.261576 16.826979 14.970735 13.699155 7.432649 4.905904 6.328400 9.442439 10.419531 11.897052 13.651301 12.912850 7.506782 8.559979 10.246482 7.006615 9.937314 9.046213 10.267814 4.875384 4.420371 4.149624 6.550253 13.714819 8.875525 8.071961 8.965838 1.528771 3.962969 4.080013 8.228022 5.837126 12.193650 24.608604 35.268887 31.803856 14.071168 9.522101 4.917912 5.249429 9.653455 6.250058 7.464892 5.131801 8.215221 6.054461 9.605368
1480227042.628000 /muse/elements/low_freqs_absolute ffff  0.000000 0.000000 0.000000 0.000000
1480227042.628000 /muse/elements/alpha_absolute ffff  0.000000 0.000000 0.000000 0.000000
1480227042.628000 /muse/elements/beta_absolute ffff  0.000000 0.000000 0.000000 0.000000
1480227042.628000 /muse/elements/delta_absolute ffff  0.000000 0.000000 0.000000 0.000000
1480227042.628000 /muse/elements/gamma_absolute ffff  0.000000 0.000000 0.000000 0.000000
1480227042.628000 /muse/elements/theta_absolute ffff  0.000000 0.000000 0.000000 0.000000
1480227042.628000 /muse/elements/alpha_session_score ffff  0.000000 0.000000 0.000000 0.000000
1480227042.629000 /muse/elements/beta_session_score ffff  0.000000 0.000000 0.000000 0.000000
1480227042.629000 /muse/elements/delta_session_score ffff  0.000000 0.000000 0.000000 0.000000
1480227042.629000 /muse/elements/gamma_session_score ffff  0.000000 0.000000 0.000000 0.000000
1480227042.629000 /muse/elements/theta_session_score ffff  0.000000 0.000000 0.000000 0.000000
1480227042.629000 /muse/acc fff  453.125702 835.938782 339.844269
1480227042.629000 /muse/acc fff  453.125702 839.845093 339.844269
1480227042.629000 /muse/acc fff  449.219452 839.845093 339.844269
1480227042.629000 /muse/acc fff  449.219452 843.751343 339.844269
1480227042.629000 /muse/drlref ff  3300000.000000 1035483.875000
1480227042.629000 /muse/eeg ffff  1222.220337 39.479527 157.918106 1664.720093
1480227042.629000 /muse/eeg/quantization iiii  64 128 128 32
1480227042.629000 /muse/eeg ffff  64.154236 881.709473 789.590576 1664.720093
1480227042.629000 /muse/eeg ffff  0.000000 250.037018 368.475586 1296.244507
1480227042.629000 /muse/eeg ffff  0.000000 39.479527 157.918106 1612.080688
1480227042.629000 /muse/eeg ffff  1158.066162 0.000000 0.000000 1612.080688
1480227042.629000 /muse/eeg ffff  105.278740 842.229919 631.672424 1559.441406
1480227042.629000 /muse/eeg ffff  0.000000 842.229919 631.672424 1454.162598
1480227042.629000 /muse/eeg ffff  0.000000 421.114960 421.114960 1612.080688
1480227042.629000 /muse/eeg ffff  842.229919 210.557480 210.557480 1612.080688
1480227042.630000 /muse/eeg ffff  842.229919 421.114960 421.114960 1506.802002
1480227042.630000 /muse/eeg ffff  210.557480 1263.344849 842.229919 1506.802002
1480227042.630000 /muse/eeg ffff  210.557480 421.114960 421.114960 1559.441406
1480227042.630000 /muse/eeg ffff  315.836212 421.114960 210.557480 1559.441406
1480227042.630000 /muse/eeg ffff  1263.344849 210.557480 210.557480 1506.802002
1480227042.630000 /muse/eeg ffff  210.557480 1263.344849 842.229919 1348.883911
1480227042.630000 /muse/eeg ffff  210.557480 1052.787476 842.229919 875.129517
1480227042.630000 /muse/acc fff  445.313202 839.845093 339.844269
1480227042.630000 /muse/acc fff  449.219452 839.845093 343.750549
1480227042.630000 /muse/acc fff  449.219452 839.845093 343.750549
1480227042.630000 /muse/acc fff  453.125702 839.845093 343.750549
1480227042.630000 /muse/eeg ffff  210.557480 842.229919 421.114960 1506.802002
1480227042.630000 /muse/eeg/quantization iiii  128 128 128 128
1480227042.630000 /muse/eeg ffff  1052.787476 631.672424 210.557480 1506.802002
1480227042.630000 /muse/eeg ffff  631.672424 842.229919 421.114960 1506.802002
1480227042.630000 /muse/eeg ffff  421.114960 1263.344849 631.672424 1085.687012
1480227042.630000 /muse/eeg ffff  421.114960 421.114960 210.557480 1085.687012
1480227042.630000 /muse/eeg ffff  842.229919 421.114960 0.000000 1296.244507
1480227042.630000 /muse/elements/alpha_relative ffff  nan nan nan nan
1480227042.630000 /muse/elements/beta_relative ffff  nan nan nan nan
1480227042.630000 /muse/elements/delta_relative ffff  nan nan nan nan
1480227042.630000 /muse/elements/gamma_relative ffff  nan nan nan nan
1480227042.630000 /muse/elements/theta_relative ffff  nan nan nan nan
1480227042.630000 /muse/elements/horseshoe ffff  4.000000 4.000000 4.000000 4.000000
1480227042.631000 /muse/elements/is_good iiii  0 0 0 0
1480227042.631000 /muse/elements/blink i  0
1480227042.631000 /muse/elements/jaw_clench i  0
1480227042.631000 /muse/elements/touching_forehead i  0
1480227042.631000 /muse/elements/experimental/concentration f  0.000000
1480227042.631000 /muse/elements/experimental/mellow f  0.000000
1480227042.631000 /muse/elements/raw_fft0 fffffffffffffffffffffffffffffffffffffffffffffffffffffffffffffffffffffffffffffffffffffffffffffffffffffffffffffffffffffffffffffffff  20.804607 22.601938 32.868401 33.436073 24.863541 31.454748 32.017502 24.584816 25.705561 26.903021 28.658218 27.622541 22.895525 24.039557 23.224461 20.020842 18.544670 21.462688 21.787752 22.944754 19.125549 23.299686 19.967295 20.600035 21.007624 16.455631 18.691786 16.197407 10.572578 9.879119 17.934378 18.200544 15.995358 10.053347 20.245041 23.350943 21.857666 18.744099 14.522069 13.695386 13.547029 11.203136 19.822775 14.688535 12.373049 14.486513 15.907474 16.671206 18.185522 13.566507 12.421519 7.825564 10.350841 19.301720 18.855089 14.528494 17.590998 35.941357 45.081951 39.509197 13.965694 14.494110 13.342327 14.726101 13.314925 13.620062 14.642460 11.682611 13.849000 17.854450 19.974710 14.102202 10.326287 4.089566 9.186072 8.998056 8.139009 9.672367 10.850156 14.830323 16.868807 23.295067 23.748821 15.444720 14.557002 12.049026 9.504118 8.202558 2.194308 9.712534 17.188559 11.809360 14.632507 18.141747 11.252219 10.199313 11.436935 11.270178 7.893202 3.915862 2.837376 8.512997 11.909250 8.701966 3.689930 11.438984 10.043742 9.798599 10.443487 10.630202 8.601040 10.616055 9.474728 5.804546 10.615290 24.177328 33.571796 30.034927 17.290100 13.537042 10.671048 11.510873 11.510593 13.417514 14.967956 9.429837 8.445956 9.100437 9.567032
1480227042.631000 /muse/elements/raw_fft1 fffffffffffffffffffffffffffffffffffffffffffffffffffffffffffffffffffffffffffffffffffffffffffffffffffffffffffffffffffffffffffffffff  21.208099 25.719118 23.112255 22.223679 23.267759 29.713251 31.149578 24.370043 19.465870 15.317616 20.227617 22.703007 19.916019 21.491903 23.929039 27.642229 32.552483 24.097750 10.841015 15.254692 14.806810 17.853020 18.751347 19.548809 20.109615 13.339897 22.065426 16.546595 12.773271 16.751041 12.764829 22.700554 26.393690 18.617107 17.234907 12.749880 12.129385 14.661242 9.045791 12.747232 14.970526 14.462242 17.292912 15.305461 9.493275 10.179944 14.927100 20.283449 20.024870 11.114064 8.131151 5.386038 6.502833 5.841165 9.118587 13.349364 13.888436 34.406342 43.693230 38.318840 18.693188 19.138969 14.263352 19.302979 17.450838 14.113974 12.936282 1.714122 7.348575 6.680316 6.019998 10.250964 11.002462 11.220444 12.525318 5.773091 5.606682 10.375504 12.736789 14.028600 12.395725 16.117813 17.347609 12.175887 7.698288 9.895520 4.390028 7.539118 12.846675 13.067945 9.879883 12.008280 11.711025 11.164507 9.750155 8.303017 5.879089 9.393721 11.502649 9.448850 7.435806 8.112171 8.286302 14.886697 9.732265 10.579658 12.295043 9.935418 10.300702 11.824404 8.478691 4.357863 8.574816 12.976348 15.421495 23.198778 34.459263 31.467665 15.364960 12.445503 9.765558 3.194815 -1.765403 2.643168 3.585039 6.376932 9.026516 15.513336 16.723730
1480227042.631000 /muse/elements/raw_fft2 fffffffffffffffffffffffffffffffffffffffffffffffffffffffffffffffffffffffffffffffffffffffffffffffffffffffffffffffffffffffffffffffff  20.024153 26.661669 29.766167 30.824411 33.342922 28.951391 25.124775 26.517654 31.650948 27.097143 22.995462 24.041832 26.870525 21.147371 21.595209 25.799425 31.001818 23.522566 21.840441 20.144651 17.424910 20.415720 17.005123 23.196461 21.722591 14.701554 12.511720 11.664815 13.021972 16.345062 19.603430 22.064945 24.240538 16.594398 11.298062 15.070486 16.864622 10.750196 3.495013 3.312481 12.652079 9.217312 8.012605 15.073572 13.364562 16.480591 16.386528 14.037304 13.850490 12.908917 12.931665 11.164473 11.453719 10.580996 14.345600 14.626892 10.736993 29.083876 38.693462 33.300354 13.923722 7.734111 7.728932 16.370804 17.483711 10.067646 8.947020 4.802819 7.430294 7.114864 13.326792 11.974764 6.424716 8.722494 8.428401 8.795163 7.414585 6.013712 8.798360 9.142738 9.901612 13.143005 15.097902 12.188277 10.791209 8.970688 8.654264 -2.464654 1.780761 10.801927 9.501154 6.882421 6.726564 5.973997 3.182379 6.389356 8.254587 7.440218 8.029415 1.338743 -6.373599 -0.792021 6.222391 8.876483 2.312307 6.234386 4.734335 4.399277 5.476972 10.363935 7.836430 4.938998 1.600780 3.382545 0.996536 16.716803 28.376720 24.790545 8.218821 9.235003 10.586386 1.242140 1.047493 -0.000931 2.777477 7.231104 6.396970 1.988504 3.517385
1480227042.631000 /muse/elements/raw_fft3 fffffffffffffffffffffffffffffffffffffffffffffffffffffffffffffffffffffffffffffffffffffffffffffffffffffffffffffffffffffffffffffffff  24.149763 23.562025 27.135206 27.182983 32.136997 32.194210 27.979725 32.104904 28.547758 28.117880 27.625713 30.751486 30.359030 24.309004 22.914124 20.842001 23.549585 24.324909 19.661604 22.228899 21.455116 24.609354 18.801899 26.461931 28.251612 21.162254 17.034153 14.833798 13.139281 13.000912 11.078020 14.777230 17.165501 11.210987 15.732181 22.350840 22.047770 19.334614 15.228640 17.334204 14.892798 14.731276 14.346304 14.682888 14.717311 14.088775 13.123293 15.938617 15.175048 12.854501 14.098991 14.843278 11.702067 17.819050 17.987829 14.650126 13.397065 35.356995 44.837162 39.480759 14.109184 13.161661 12.620431 18.293882 17.296993 12.291603 9.895827 11.358561 16.346540 16.580271 17.520222 15.926267 12.118166 13.525681 11.043304 8.164470 11.835193 10.963499 7.253443 10.142892 12.164591 20.524076 24.724607 17.847631 15.072815 13.855675 6.984410 4.388989 6.531600 9.188294 10.807212 11.370786 13.680757 13.386744 7.017866 9.008615 10.349558 6.854575 9.982195 10.145312 9.915401 6.616167 4.502003 3.765559 6.110943 13.531349 8.302145 8.833906 8.630684 2.244297 4.538931 5.747181 7.653383 5.324564 12.608447 24.319815 35.032829 31.528370 13.767118 9.217767 5.193076 5.788795 9.589384 6.071639 6.929741 5.968156 8.428597 7.227011 10.588502
1480227042.631000 /muse/elements/low_freqs_absolute ffff  0.000000 0.000000 0.000000 0.000000
1480227042.631000 /muse/elements/alpha_absolute ffff  0.000000 0.000000 0.000000 0.000000
1480227042.631000 /muse/elements/beta_absolute ffff  0.000000 0.000000 0.000000 0.000000
1480227042.631000 /muse/elements/delta_absolute ffff  0.000000 0.000000 0.000000 0.000000
1480227042.631000 /muse/elements/gamma_absolute ffff  0.000000 0.000000 0.000000 0.000000
1480227042.632000 /muse/elements/theta_absolute ffff  0.000000 0.000000 0.000000 0.000000
1480227042.632000 /muse/elements/alpha_session_score ffff  0.000000 0.000000 0.000000 0.000000
1480227042.632000 /muse/elements/beta_session_score ffff  0.000000 0.000000 0.000000 0.000000
1480227042.632000 /muse/elements/delta_session_score ffff  0.000000 0.000000 0.000000 0.000000
1480227042.632000 /muse/elements/gamma_session_score ffff  0.000000 0.000000 0.000000 0.000000
1480227042.632000 /muse/elements/theta_session_score ffff  0.000000 0.000000 0.000000 0.000000
1480227042.632000 /muse/eeg ffff  1263.344849 421.114960 0.000000 1296.244507
1480227042.632000 /muse/eeg ffff  421.114960 1263.344849 631.672424 1085.687012
1480227042.632000 /muse/eeg ffff  421.114960 631.672424 421.114960 243.457092
1480227042.632000 /muse/eeg ffff  421.114960 631.672424 210.557480 1296.244507
1480227042.632000 /muse/eeg ffff  1473.902344 421.114960 0.000000 1296.244507
1480227042.632000 /muse/eeg ffff  421.114960 1263.344849 631.672424 1085.687012
1480227042.632000 /muse/eeg ffff  421.114960 1263.344849 631.672424 243.457092
1480227042.632000 /muse/eeg ffff  421.114960 421.114960 210.557480 454.014587
1480227042.632000 /muse/eeg ffff  1052.787476 421.114960 210.557480 1296.244507
1480227042.632000 /muse/eeg ffff  1052.787476 631.672424 421.114960 1296.244507
1480227042.632000 /muse/acc fff  453.125702 843.751343 339.844269
1480227042.632000 /muse/drlref ff  3300000.000000 1051612.875000
1480227042.632000 /muse/acc fff  453.125702 832.032532 339.844269
1480227042.632000 /muse/acc fff  453.125702 843.751343 335.938019
1480227042.633000 /muse/eeg ffff  210.557480 1052.787476 631.672424 32.899609
1480227042.633000 /muse/eeg/quantization iiii  128 256 128 256
1480227042.633000 /muse/eeg ffff  0.000000 210.557480 210.557480 32.899609
1480227042.633000 /muse/eeg ffff  0.000000 210.557480 0.000000 875.129517
1480227042.633000 /muse/eeg ffff  842.229919 210.557480 0.000000 1296.244507
1480227042.633000 /muse/eeg ffff  0.000000 1052.787476 631.672424 454.014587
1480227042.633000 /muse/eeg ffff  0.000000 1052.787476 631.672424 32.899609
1480227042.633000 /muse/eeg ffff  0.000000 631.672424 421.114960 454.014587
1480227042.633000 /muse/eeg ffff  1052.787476 631.672424 210.557480 1296.244507
1480227042.633000 /muse/eeg ffff  631.672424 1052.787476 631.672424 1296.244507
1480227042.633000 /muse/eeg ffff  210.557480 1473.902344 842.229919 454.014587
1480227042.633000 /muse/eeg ffff  210.557480 631.672424 421.114960 454.014587
1480227042.633000 /muse/eeg ffff  842.229919 631.672424 210.557480 1296.244507
1480227042.633000 /muse/elements/alpha_relative ffff  nan nan nan nan
1480227042.633000 /muse/elements/beta_relative ffff  nan nan nan nan
1480227042.633000 /muse/elements/delta_relative ffff  nan nan nan nan
1480227042.633000 /muse/elements/gamma_relative ffff  nan nan nan nan
1480227042.633000 /muse/elements/theta_relative ffff  nan nan nan nan
1480227042.633000 /muse/elements/horseshoe ffff  4.000000 4.000000 4.000000 4.000000
1480227042.634000 /muse/elements/is_good iiii  0 0 0 0
1480227042.634000 /muse/elements/blink i  0
1480227042.634000 /muse/elements/jaw_clench i  0
1480227042.634000 /muse/elements/touching_forehead i  0
1480227042.634000 /muse/elements/experimental/concentration f  0.000000
1480227042.634000 /muse/elements/experimental/mellow f  0.000000
1480227042.634000 /muse/elements/raw_fft0 fffffffffffffffffffffffffffffffffffffffffffffffffffffffffffffffffffffffffffffffffffffffffffffffffffffffffffffffffffffffffffffffff  21.145533 22.094219 32.761200 32.989616 25.976147 32.056034 32.164982 24.320860 25.745914 27.594606 29.356640 27.585455 22.470472 24.277105 24.092140 20.921379 18.869480 20.983030 21.440155 22.688343 19.224472 23.613447 20.506109 21.565943 21.412756 17.206152 19.837584 17.057890 11.478252 11.275099 17.465904 18.245350 15.484573 11.002904 20.508497 23.129400 21.697674 18.452677 14.820805 13.642802 13.709468 11.903981 19.891958 14.711456 12.158772 14.835815 16.003227 16.952681 18.281395 13.311208 11.998546 8.356273 10.662807 19.187347 18.416496 14.462957 17.498425 35.851418 45.051159 39.473507 14.430542 14.032848 12.885921 15.134951 13.573635 13.910312 14.137705 12.569770 14.513247 18.060974 19.734789 14.085853 11.077295 4.724545 9.449782 9.990599 7.945920 9.672330 11.467446 14.645757 17.130499 22.919493 23.622595 15.836989 14.049627 12.047765 9.719563 8.148716 2.449425 9.543490 17.200876 12.391251 14.888820 17.966785 10.777987 9.703667 11.064555 10.824601 8.164409 4.384846 2.347293 8.107247 11.554279 8.788967 3.956739 11.477996 9.905331 9.959071 9.941546 11.211222 10.200936 10.143106 10.075102 7.128159 12.191728 24.383760 33.640980 30.040543 17.226852 13.574329 11.624699 11.878032 11.780805 13.619889 15.135045 9.488694 8.698895 9.207735 9.492710
1480227042.634000 /muse/elements/raw_fft1 fffffffffffffffffffffffffffffffffffffffffffffffffffffffffffffffffffffffffffffffffffffffffffffffffffffffffffffffffffffffffffffffff  21.649220 26.126059 24.062000 22.200527 24.455608 29.272200 31.018566 24.028347 21.903791 18.890930 23.187990 22.795643 19.503250 21.348049 23.908640 27.282219 32.284641 23.762888 10.849487 14.763174 14.739736 17.386429 18.943743 20.373106 20.146074 13.882214 22.178764 16.091019 12.703045 16.690426 13.937140 22.747131 26.164810 18.138292 16.772261 12.596290 11.835009 14.225181 8.580472 12.360310 15.387942 14.193257 17.018848 14.861140 9.265615 10.040913 15.784046 20.990479 20.473549 12.525147 8.552667 5.367287 7.034664 5.577534 8.917682 14.259132 14.665607 34.478706 43.696671 38.323006 18.887764 18.874212 13.766484 18.864262 17.078026 13.715666 12.715245 3.049266 7.624468 6.196344 7.206388 11.311307 11.280062 10.841246 12.624037 5.492049 6.118620 9.998760 12.402447 13.807852 12.397029 15.968363 17.083229 11.925495 7.353529 9.822326 4.174963 7.067711 12.436521 12.585416 9.420987 11.910434 11.501328 10.833060 9.245503 7.861435 5.767120 9.080349 11.010174 9.456553 7.236506 7.651720 8.268222 14.853356 9.397859 10.235159 11.958666 10.117778 10.812996 11.821709 8.303342 4.439338 8.888855 13.285377 15.181972 23.647955 34.462276 31.409323 15.047379 12.167030 10.674796 3.434723 -0.659564 2.297808 3.470922 5.976094 8.634797 15.289868 16.433468
1480227042.634000 /muse/elements/raw_fft2 fffffffffffffffffffffffffffffffffffffffffffffffffffffffffffffffffffffffffffffffffffffffffffffffffffffffffffffffffffffffffffffffff  20.534519 26.972366 29.887741 30.516514 33.463364 29.247036 24.962023 27.633915 32.177719 27.533068 22.696518 24.425758 27.027418 21.205969 21.800959 25.512615 30.973890 23.584282 21.433138 19.785229 17.230732 20.304190 17.095942 23.305256 22.125883 14.555384 12.583136 11.246389 13.196477 16.505802 19.913128 21.718204 24.024080 16.223759 11.655127 15.113856 16.859783 11.261458 3.550610 3.573427 12.787379 10.047582 7.864866 14.766075 12.951106 16.113394 16.351706 13.735942 14.272152 12.860547 12.633483 11.356053 11.784146 10.870273 13.919640 14.193478 11.398856 29.051056 38.718880 33.271267 13.560673 7.623820 7.795036 16.044271 17.128784 9.628675 9.050489 4.902030 7.666632 6.917787 12.986399 12.518705 6.510898 8.270861 8.015023 8.445815 7.220586 6.043273 8.425303 9.058699 10.240242 13.009974 14.780708 11.737038 10.579409 9.269057 8.298688 -1.780802 3.362977 10.744807 9.106890 6.746569 6.597197 6.951890 3.216886 6.366716 7.791045 7.384189 7.755194 2.247684 -5.325713 -0.698630 5.822692 8.751370 2.374563 5.748153 4.845678 5.457257 5.787323 10.368808 7.673796 4.791367 2.225193 2.900257 2.848773 16.577353 28.392193 24.801752 7.752079 8.839847 10.242444 1.985065 0.964298 -0.419900 2.969895 7.726718 6.084090 1.633793 3.016254
1480227042.634000 /muse/elements/raw_fft3 fffffffffffffffffffffffffffffffffffffffffffffffffffffffffffffffffffffffffffffffffffffffffffffffffffffffffffffffffffffffffffffffff  24.869747 25.300219 29.066381 28.799259 31.885181 31.718504 28.560043 32.243355 28.078310 28.526096 27.234274 30.655375 30.638168 24.529608 22.793087 20.636744 23.861498 23.905540 19.485857 22.103743 21.667553 24.217972 19.993893 26.639708 27.954166 21.616274 17.252211 14.697217 13.240932 13.031161 10.854308 15.239392 17.305687 12.498411 17.198759 23.317503 22.048992 19.042934 15.534062 17.552332 14.704927 15.346105 14.530511 14.196205 14.826844 14.546481 12.731203 15.879887 15.094926 12.808908 14.318764 14.359856 12.014732 17.764517 18.529465 14.168255 14.403186 35.393394 44.822598 39.534714 15.083330 13.302158 12.452887 17.938843 17.016750 12.150226 10.711385 12.376369 15.957191 17.066481 18.376125 16.690506 12.007723 13.450175 11.423072 7.935441 11.390812 10.828588 6.946314 10.028735 12.966807 21.017250 24.990753 18.368752 14.782092 14.127234 6.593205 4.106425 6.700992 8.902590 10.819570 11.032595 13.666500 13.682031 6.896595 9.627962 10.153498 6.654250 9.961111 10.736807 9.442711 7.844187 5.013569 3.552621 5.674829 13.465858 8.352339 9.470613 8.233466 2.246006 5.472693 6.447426 7.420643 5.092194 13.150362 24.208384 34.773174 31.273981 13.792516 9.685912 5.552663 5.811870 9.575565 6.311713 6.863584 6.651789 8.413610 7.451514 11.622752
1480227042.634000 /muse/elements/low_freqs_absolute ffff  0.000000 0.000000 0.000000 0.000000
1480227042.634000 /muse/elements/alpha_absolute ffff  0.000000 0.000000 0.000000 0.000000
1480227042.634000 /muse/elements/beta_absolute ffff  0.000000 0.000000 0.000000 0.000000
1480227042.634000 /muse/elements/delta_absolute ffff  0.000000 0.000000 0.000000 0.000000
1480227042.634000 /muse/elements/gamma_absolute ffff  0.000000 0.000000 0.000000 0.000000
1480227042.634000 /muse/elements/theta_absolute ffff  0.000000 0.000000 0.000000 0.000000
1480227042.634000 /muse/elements/alpha_session_score ffff  0.000000 0.000000 0.000000 0.000000
1480227042.634000 /muse/elements/beta_session_score ffff  0.000000 0.000000 0.000000 0.000000
1480227042.634000 /muse/elements/delta_session_score ffff  0.000000 0.000000 0.000000 0.000000
1480227042.635000 /muse/elements/gamma_session_score ffff  0.000000 0.000000 0.000000 0.000000
1480227042.635000 /muse/elements/theta_session_score ffff  0.000000 0.000000 0.000000 0.000000
1480227042.635000 /muse/eeg ffff  1473.902344 631.672424 210.557480 1296.244507
1480227042.635000 /muse/eeg ffff  421.114960 1473.902344 842.229919 454.014587
1480227042.635000 /muse/eeg ffff  421.114960 1052.787476 631.672424 454.014587
1480227042.635000 /muse/eeg ffff  631.672424 631.672424 421.114960 875.129517
1480227042.635000 /muse/acc fff  449.219452 839.845093 335.938019
1480227042.635000 /muse/acc fff  449.219452 843.751343 339.844269
1480227042.635000 /muse/acc fff  449.219452 843.751343 339.844269
1480227042.635000 /muse/acc fff  449.219452 835.938782 343.750549
1480227042.635000 /muse/drlref ff  3300000.000000 1035483.875000
1480227042.635000 /muse/eeg ffff  1473.902344 631.672424 421.114960 1296.244507
1480227042.635000 /muse/eeg/quantization iiii  256 128 128 256
1480227042.635000 /muse/eeg ffff  631.672424 1263.344849 842.229919 875.129517
1480227042.635000 /muse/eeg ffff  631.672424 1682.814941 842.229919 454.014587
1480227042.635000 /muse/eeg ffff  631.672424 840.584961 631.672424 454.014587
1480227042.635000 /muse/eeg ffff  1473.902344 630.027466 421.114960 1296.244507
1480227042.635000 /muse/eeg ffff  1473.902344 630.027466 631.672424 1296.244507
1480227042.635000 /muse/eeg ffff  631.672424 1682.814941 1052.787476 454.014587
1480227042.636000 /muse/eeg ffff  631.672424 1051.142456 631.672424 454.014587
1480227042.636000 /muse/eeg ffff  1052.787476 840.584961 421.114960 1296.244507
1480227042.636000 /muse/eeg ffff  1682.814941 630.027466 421.114960 1682.814941
1480227042.636000 /muse/eeg ffff  419.470001 1472.257446 1052.787476 840.584961
1480227042.636000 /muse/eeg ffff  419.470001 1472.257446 842.229919 419.470001
1480227042.636000 /muse/eeg ffff  419.470001 840.584961 631.672424 419.470001
1480227042.636000 /muse/eeg ffff  1261.699951 630.027466 421.114960 1261.699951
1480227042.636000 /muse/eeg ffff  840.584961 840.584961 842.229919 1261.699951
1480227042.636000 /muse/eeg ffff  419.470001 1682.814941 1052.787476 419.470001
1480227042.636000 /muse/acc fff  453.125702 839.845093 343.750549
1480227042.636000 /muse/acc fff  449.219452 835.938782 339.844269
1480227042.636000 /muse/acc fff  453.125702 835.938782 339.844269
1480227042.636000 /muse/acc fff  453.125702 839.845093 339.844269
1480227042.636000 /muse/eeg ffff  840.584961 630.027466 421.114960 0.000000
1480227042.636000 /muse/eeg/quantization iiii  256 128 128 256
1480227042.636000 /muse/eeg ffff  1682.814941 208.912506 0.000000 421.114960
1480227042.636000 /muse/elements/alpha_relative ffff  nan nan nan nan
1480227042.636000 /muse/elements/beta_relative ffff  nan nan nan nan
1480227042.636000 /muse/elements/delta_relative ffff  nan nan nan nan
1480227042.637000 /muse/elements/gamma_relative ffff  nan nan nan nan
1480227042.637000 /muse/elements/theta_relative ffff  nan nan nan nan
1480227042.637000 /muse/elements/horseshoe ffff  4.000000 4.000000 4.000000 4.000000
1480227042.637000 /muse/elements/is_good iiii  0 0 0 0
1480227042.637000 /muse/elements/blink i  0
1480227042.637000 /muse/elements/jaw_clench i  0
1480227042.637000 /muse/elements/touching_forehead i  0
1480227042.637000 /muse/elements/experimental/concentration f  0.000000
1480227042.637000 /muse/elements/experimental/mellow f  0.000000
1480227042.637000 /muse/elements/raw_fft0 fffffffffffffffffffffffffffffffffffffffffffffffffffffffffffffffffffffffffffffffffffffffffffffffffffffffffffffffffffffffffffffffff  21.081455 21.718567 32.653660 32.589188 27.089272 32.648716 32.385067 23.891237 25.931479 28.173872 30.058773 27.710009 22.266342 24.567970 24.905106 21.697435 19.000097 20.618830 21.065535 22.394325 19.321125 23.836653 21.192219 22.434221 21.641573 17.596498 20.798594 17.595472 11.955180 12.051320 17.017929 18.367905 15.280415 12.684320 20.885479 23.093786 21.651461 18.477503 14.940566 13.624787 13.632958 13.143106 19.941603 14.729319 11.974992 14.945563 15.779153 16.933176 18.155815 13.242230 11.844100 9.066110 10.818169 18.979635 18.014711 14.576701 17.638197 35.867989 45.024174 39.470703 15.093972 13.595392 12.480109 15.705495 13.926407 14.256054 13.788304 12.938797 14.713634 18.003767 19.428951 13.790584 11.820504 5.328125 9.730143 10.310776 8.012092 9.924606 12.110484 14.225305 17.430294 22.715288 23.485041 16.132105 13.772143 11.949273 9.918406 8.187189 2.716018 9.847899 17.236317 12.543139 14.882702 17.816610 10.378755 9.262390 10.683502 10.379210 8.165826 4.777326 2.150154 7.695669 11.293607 8.746743 3.852473 11.686976 9.952989 10.114625 9.675803 11.860663 11.627389 10.245430 11.162163 9.575694 14.328188 24.163864 33.660294 29.951029 17.212580 14.021260 12.687583 12.645737 11.512426 13.705009 15.144704 9.174180 9.134998 9.429657 9.698036
1480227042.637000 /muse/elements/raw_fft1 fffffffffffffffffffffffffffffffffffffffffffffffffffffffffffffffffffffffffffffffffffffffffffffffffffffffffffffffffffffffffffffffff  23.382460 27.219221 24.882776 22.895500 25.627089 28.831512 30.905672 24.245939 24.452412 22.880693 25.449118 23.279835 19.372396 21.276346 23.724634 27.112186 32.098103 23.686543 11.389223 14.336594 14.927039 17.129749 19.432236 21.702990 20.479050 14.922439 22.330635 15.884509 12.420774 16.518063 14.613275 22.696716 25.915848 17.725718 16.433916 12.739278 11.687130 13.894170 8.602933 12.008945 15.644433 13.920141 16.757778 14.414927 8.866800 9.688993 16.449602 21.387344 20.628525 13.824433 9.135000 5.529625 7.705148 5.365904 8.865038 14.953537 15.925042 34.541832 43.691032 38.372925 19.487942 18.642284 13.339927 18.463793 16.790579 13.414522 12.697568 5.044881 7.840624 5.827730 8.120880 12.234943 11.796476 10.678666 12.722238 5.577134 6.576606 9.835752 12.179249 13.763098 12.208967 15.754822 16.898317 12.015800 7.708092 9.968197 4.534908 6.856736 12.127298 12.129226 9.077908 11.791201 11.371131 10.516514 8.788262 7.549270 5.788525 8.732285 10.608392 9.534541 7.535810 7.240085 8.307384 14.819927 9.475325 10.096560 11.845959 10.562130 11.234773 11.471339 8.326520 4.694136 9.787189 13.827115 15.402443 23.708672 34.426994 31.325554 14.638029 11.813738 11.466428 4.942123 0.152835 2.014776 3.446605 5.982581 8.508934 15.028032 16.032465
1480227042.637000 /muse/elements/raw_fft2 fffffffffffffffffffffffffffffffffffffffffffffffffffffffffffffffffffffffffffffffffffffffffffffffffffffffffffffffffffffffffffffffff  21.977589 27.687563 30.117613 30.122919 33.526184 29.341097 25.071510 28.279055 32.443626 27.653214 22.564245 24.796017 27.138641 20.931158 21.913338 25.157898 30.901058 23.517481 21.027189 19.498722 16.941835 20.099058 17.255259 23.345160 22.440689 14.144453 12.853457 11.139488 13.485038 16.292757 19.985647 21.273884 23.795076 16.090872 12.284472 15.399605 16.702646 11.363571 3.963988 3.510424 13.005550 10.452058 8.029647 14.432688 12.624185 15.750290 16.279732 13.314980 14.564359 12.914932 12.253795 11.443359 11.786583 10.816475 13.655368 13.809077 12.014342 29.056641 38.751442 33.253941 13.224582 7.397367 7.621274 15.648636 16.814693 9.304372 9.095804 4.762585 7.674207 6.605353 12.615990 12.955384 6.867495 7.877306 7.729660 8.007752 6.983907 6.078956 8.308850 9.244469 10.508060 12.745338 14.487282 11.304925 10.354336 9.603702 7.856457 0.004546 4.254395 10.704896 8.873381 6.620313 6.508070 7.642159 3.170062 6.342292 7.589255 7.524457 7.671572 3.169962 -2.418681 -0.445213 5.437663 8.545930 2.527522 5.315825 4.889751 6.316465 5.761733 10.227615 7.665920 4.746265 2.388784 2.565132 4.269825 16.835905 28.429626 24.799768 7.461185 8.538222 9.830778 2.870585 0.734200 -0.752481 2.929142 8.115028 5.645039 1.338010 2.568014
1480227042.637000 /muse/elements/raw_fft3 fffffffffffffffffffffffffffffffffffffffffffffffffffffffffffffffffffffffffffffffffffffffffffffffffffffffffffffffffffffffffffffffff  24.985468 28.175886 31.020241 29.782553 31.532143 31.274061 29.492420 32.582401 27.994452 29.021360 26.948378 30.637751 30.809849 24.354895 22.722424 20.628113 23.952986 23.514757 19.233149 21.781353 21.635672 23.772820 20.926702 26.752779 27.587387 21.784138 17.912289 14.930696 12.986262 13.170066 11.092448 15.487343 17.133720 13.380806 18.162743 23.996265 22.016987 18.797348 16.237448 17.637890 14.292373 15.834369 14.611799 13.740336 14.761788 15.086992 12.628646 15.652459 14.932498 13.156167 15.060131 14.252567 13.727133 18.295242 19.470373 14.580872 15.689161 35.469082 44.794182 39.559704 17.175987 14.016325 12.944057 17.950380 16.873789 12.259563 11.799719 13.285418 15.620292 17.526499 19.034101 17.040060 11.779983 13.261862 11.657618 7.573849 10.942968 10.788426 6.811838 9.896323 13.783330 21.325146 25.066456 18.597843 14.495399 14.534620 6.613035 4.648155 7.030940 8.612003 10.623978 10.919141 13.641459 13.735851 7.540274 10.406234 9.891541 6.425656 9.906338 11.114814 9.054993 8.908421 5.902903 3.722556 5.265847 13.568603 9.471483 9.870341 7.889174 2.663833 5.744231 6.963155 7.756901 6.087934 14.051802 24.322012 34.488670 31.024937 14.774669 11.323655 6.145097 6.189300 9.353481 7.439505 7.251711 6.951709 8.183768 7.346382 12.377847
1480227042.637000 /muse/elements/low_freqs_absolute ffff  0.000000 0.000000 0.000000 0.000000
1480227042.637000 /muse/elements/alpha_absolute ffff  0.000000 0.000000 0.000000 0.000000
1480227042.638000 /muse/elements/beta_absolute ffff  0.000000 0.000000 0.000000 0.000000
1480227042.638000 /muse/elements/delta_absolute ffff  0.000000 0.000000 0.000000 0.000000
1480227042.638000 /muse/elements/gamma_absolute ffff  0.000000 0.000000 0.000000 0.000000
1480227042.638000 /muse/elements/theta_absolute ffff  0.000000 0.000000 0.000000 0.000000
1480227042.638000 /muse/elements/alpha_session_score ffff  0.000000 0.000000 0.000000 0.000000
1480227042.638000 /muse/elements/beta_session_score ffff  0.000000 0.000000 0.000000 0.000000
1480227042.638000 /muse/elements/delta_session_score ffff  0.000000 0.000000 0.000000 0.000000
1480227042.638000 /muse/elements/gamma_session_score ffff  0.000000 0.000000 0.000000 0.000000
1480227042.638000 /muse/elements/theta_session_score ffff  0.000000 0.000000 0.000000 0.000000
1480227042.638000 /muse/eeg ffff  1682.814941 0.000000 0.000000 842.229919
1480227042.638000 /muse/eeg ffff  419.470001 1052.787476 631.672424 0.000000
1480227042.638000 /muse/eeg ffff  419.470001 842.229919 421.114960 0.000000
1480227042.638000 /muse/eeg ffff  419.470001 421.114960 210.557480 421.114960
1480227042.638000 /muse/eeg ffff  1261.699951 210.557480 0.000000 1263.344849
1480227042.638000 /muse/eeg ffff  419.470001 842.229919 631.672424 842.229919
1480227042.638000 /muse/eeg ffff  0.000000 1263.344849 631.672424 421.114960
1480227042.638000 /muse/eeg ffff  0.000000 421.114960 421.114960 421.114960
1480227042.639000 /muse/eeg ffff  842.229919 210.557480 210.557480 1263.344849
1480227042.639000 /muse/eeg ffff  842.229919 210.557480 421.114960 1263.344849
1480227042.639000 /muse/eeg ffff  0.000000 1263.344849 842.229919 421.114960
1480227042.639000 /muse/eeg ffff  0.000000 631.672424 421.114960 421.114960
1480227042.639000 /muse/eeg ffff  421.114960 421.114960 210.557480 842.229919
